Wavelength (nm)	Spectral irradiance (W m-2 nm-1)	Cumulative photon flux (cm-2 s-1)
280	0.082	5.77559E+12
281	0.15275	2.73701E+13
282	0.26225	6.45766E+13
283	0.319	1.09995E+14
284	0.29275	1.51823E+14
285	0.18925	1.78959E+14
286	0.243	2.13923E+14
287	0.349	2.64315E+14
288	0.3215	3.10898E+14
289	0.397	3.68621E+14
290	0.55275	4.49266E+14
291	0.61	5.38572E+14
292	0.56525	6.2161E+14
293	0.5385	7.00989E+14
294	0.53375	7.79937E+14
295	0.53325	8.59079E+14
296	0.5565	9.41952E+14
297	0.5015	1.01689E+15
298	0.51325	1.09384E+15
299	0.47825	1.16578E+15
300	0.4625	1.23558E+15
301	0.45925	1.30513E+15
302	0.471	1.37669E+15
303	0.5945	1.46732E+15
304	0.6285	1.56344E+15
305	0.63025	1.66015E+15
306	0.579	1.74929E+15
307	0.604	1.84257E+15
308	0.6405	1.94182E+15
309	0.57525	2.03125E+15
310	0.5545	2.11773E+15
311	0.73	2.23195E+15
312	0.708	2.34308E+15
313	0.697	2.45284E+15
314	0.7085	2.56476E+15
315	0.6695	2.67086E+15
316	0.61375	2.76844E+15
317	0.73225	2.88522E+15
318	0.7325	3.00241E+15
319	0.70625	3.11575E+15
320	0.77725	3.24089E+15
321	0.76875	3.36503E+15
322	0.72525	3.48252E+15
323	0.67275	3.59185E+15
324	0.73775	3.7121E+15
325	0.84	3.84945E+15
326	0.9825	4.01059E+15
327	1.00175	4.17539E+15
328	0.95875	4.3336E+15
329	1.0085	4.50053E+15
330	1.09	4.68149E+15
331	1.004	4.84869E+15
332	0.99	5.01405E+15
333	0.96125	5.17509E+15
334	0.9595	5.33632E+15
335	0.996	5.50418E+15
336	0.896	5.65564E+15
337	0.8355	5.7973E+15
338	0.92125	5.95395E+15
339	0.97125	6.1196E+15
340	1.03475	6.2966E+15
341	0.98775	6.46606E+15
342	0.99525	6.6373E+15
343	1.02325	6.81388E+15
344	0.876	6.96548E+15
345	0.90375	7.12235E+15
346	0.953	7.28824E+15
347	0.95725	7.45535E+15
348	0.93	7.61817E+15
349	0.91375	7.77861E+15
350	1.005	7.95558E+15
351	1.0475	8.14055E+15
352	0.976	8.31339E+15
353	0.9915	8.48948E+15
354	1.12	8.68895E+15
355	1.13	8.89077E+15
356	1.02975	9.0752E+15
357	0.87325	9.23204E+15
358	0.78975	9.37428E+15
359	0.86925	9.53128E+15
360	1.06	9.72326E+15
361	0.958	9.89726E+15
362	0.971	1.00741E+16
363	1.0575	1.02672E+16
364	1.06	1.04613E+16
365	1.115	1.06661E+16
366	1.265	1.0899E+16
367	1.2575	1.11312E+16
368	1.175	1.13487E+16
369	1.2025	1.1572E+16
370	1.2575	1.18061E+16
371	1.1875	1.20277E+16
372	1.1475	1.22425E+16
373	1.02725	1.24352E+16
374	0.933	1.26108E+16
375	0.99625	1.27987E+16
376	1.1075	1.30082E+16
377	1.1925	1.32344E+16
378	1.3775	1.34964E+16
379	1.235	1.37319E+16
380	1.1575	1.39532E+16
381	1.2125	1.41856E+16
382	0.96275	1.43706E+16
383	0.7515	1.45154E+16
384	0.83475	1.46767E+16
385	1.044	1.48789E+16
386	1.0105	1.50751E+16
387	1.0325	1.52761E+16
388	1.00925	1.54732E+16
389	1.08925	1.56863E+16
390	1.24	1.59296E+16
391	1.3175	1.61888E+16
392	1.215	1.64284E+16
393	0.77775	1.65822E+16
394	0.79625	1.674E+16
395	1.22	1.69825E+16
396	1.12075	1.72058E+16
397	0.777	1.73609E+16
398	1.27275	1.76158E+16
399	1.61	1.7939E+16
400	1.6925	1.82796E+16
401	1.75	1.86326E+16
402	1.79375	1.89954E+16
403	1.75125	1.93505E+16
404	1.7525	1.97067E+16
405	1.71875	2.00569E+16
406	1.67125	2.03982E+16
407	1.64375	2.07348E+16
408	1.705	2.10848E+16
409	1.7625	2.14475E+16
410	1.59625	2.17767E+16
411	1.71	2.21303E+16
412	1.7975	2.25029E+16
413	1.74625	2.28657E+16
414	1.72125	2.32242E+16
415	1.76875	2.35935E+16
416	1.8075	2.39718E+16
417	1.76625	2.43424E+16
418	1.7075	2.47014E+16
419	1.72375	2.50648E+16
420	1.645	2.54124E+16
421	1.78	2.57894E+16
422	1.77625	2.61665E+16
423	1.72625	2.65339E+16
424	1.7175	2.69003E+16
425	1.74625	2.72736E+16
426	1.7	2.7638E+16
427	1.64875	2.79922E+16
428	1.6325	2.83437E+16
429	1.4975	2.86669E+16
430	1.235	2.89341E+16
431	1.20375	2.91951E+16
432	1.71375	2.95676E+16
433	1.69	2.99357E+16
434	1.595	3.0284E+16
435	1.71125	3.06585E+16
436	1.85375	3.10651E+16
437	1.86625	3.14754E+16
438	1.6825	3.18462E+16
439	1.63625	3.22075E+16
440	1.7975	3.26054E+16
441	1.81875	3.3009E+16
442	1.90875	3.34334E+16
443	1.93875	3.38655E+16
444	1.9075	3.42916E+16
445	1.93375	3.47245E+16
446	1.815	3.51318E+16
447	1.96375	3.55734E+16
448	2.00625	3.60256E+16
449	2.01	3.64796E+16
450	2.07	3.69483E+16
451	2.12	3.74293E+16
452	2.04125	3.78935E+16
453	1.92625	3.83325E+16
454	2.00125	3.87896E+16
455	2.01	3.92497E+16
456	2.055	3.97211E+16
457	2.07125	4.01974E+16
458	2.03375	4.0666E+16
459	2.01125	4.11304E+16
460	2.00875	4.15953E+16
461	2.055	4.20719E+16
462	2.0775	4.25548E+16
463	2.0725	4.30376E+16
464	2.0225	4.35097E+16
465	1.99	4.39752E+16
466	2.00375	4.4445E+16
467	1.95125	4.49034E+16
468	2.00125	4.53746E+16
469	2.00875	4.58486E+16
470	1.95375	4.63106E+16
471	1.97875	4.67795E+16
472	2.0475	4.72657E+16
473	2.0025	4.77422E+16
474	2.01625	4.8223E+16
475	2.0625	4.87159E+16
476	2.02125	4.91999E+16
477	2.035	4.96883E+16
478	2.07625	5.01876E+16
479	2.05	5.06816E+16
480	2.065	5.11803E+16
481	2.06125	5.16791E+16
482	2.05625	5.21777E+16
483	2.02875	5.26707E+16
484	1.99375	5.31562E+16
485	1.93375	5.3628E+16
486	1.67125	5.40367E+16
487	1.785	5.4474E+16
488	1.90625	5.4942E+16
489	1.86125	5.53999E+16
490	1.99375	5.58914E+16
491	1.94875	5.63728E+16
492	1.88625	5.68397E+16
493	1.95875	5.73255E+16
494	1.95125	5.78105E+16
495	2.0225	5.83141E+16
496	1.96625	5.88048E+16
497	1.96875	5.92971E+16
498	1.9275	5.978E+16
499	1.92	6.0262E+16
500	1.9125	6.07431E+16
501	1.8675	6.12138E+16
502	1.87125	6.16864E+16
503	1.92375	6.21732E+16
504	1.86	6.26448E+16
505	1.945	6.3139E+16
506	2.00875	6.36504E+16
507	1.94375	6.41462E+16
508	1.89875	6.46314E+16
509	1.95125	6.51311E+16
510	1.92125	6.56241E+16
511	1.9425	6.61234E+16
512	1.96875	6.66306E+16
513	1.87875	6.71155E+16
514	1.83375	6.75897E+16
515	1.87375	6.80751E+16
516	1.845	6.85541E+16
517	1.61125	6.89732E+16
518	1.725	6.94227E+16
519	1.7275	6.98738E+16
520	1.84125	7.03555E+16
521	1.875	7.0847E+16
522	1.89875	7.13456E+16
523	1.8325	7.18278E+16
524	1.92125	7.23343E+16
525	1.92375	7.28424E+16
526	1.84875	7.33316E+16
527	1.69875	7.3782E+16
528	1.86125	7.42764E+16
529	1.94875	7.47951E+16
530	1.91375	7.53054E+16
531	1.98125	7.58346E+16
532	1.93875	7.63536E+16
533	1.79125	7.68339E+16
534	1.85875	7.73332E+16
535	1.905	7.7846E+16
536	1.9425	7.83698E+16
537	1.85	7.88696E+16
538	1.8925	7.93819E+16
539	1.85875	7.98859E+16
540	1.79875	8.03746E+16
541	1.75875	8.08533E+16
542	1.865	8.13618E+16
543	1.86375	8.1871E+16
544	1.905	8.23923E+16
545	1.875	8.29064E+16
546	1.86375	8.34184E+16
547	1.87125	8.39334E+16
548	1.8425	8.44413E+16
549	1.87125	8.49582E+16
550	1.8625	8.54735E+16
551	1.865	8.59905E+16
552	1.8875	8.65147E+16
553	1.8525	8.70301E+16
554	1.87625	8.7553E+16
555	1.885	8.80794E+16
556	1.8575	8.8599E+16
557	1.82125	8.91093E+16
558	1.83375	8.96241E+16
559	1.775	9.01233E+16
560	1.79875	9.06301E+16
561	1.86625	9.11568E+16
562	1.82	9.16714E+16
563	1.8575	9.21975E+16
564	1.845	9.2721E+16
565	1.83625	9.3243E+16
566	1.7775	9.37492E+16
567	1.85375	9.4278E+16
568	1.8575	9.48088E+16
569	1.83375	9.53337E+16
570	1.82125	9.5856E+16
571	1.7825	9.6368E+16
572	1.8575	9.69026E+16
573	1.8775	9.74438E+16
574	1.86625	9.79827E+16
575	1.83375	9.85132E+16
576	1.82625	9.90424E+16
577	1.8475	9.95787E+16
578	1.81	1.00105E+17
579	1.81875	1.00635E+17
580	1.82875	1.01168E+17
581	1.8325	1.01704E+17
582	1.84875	1.02245E+17
583	1.8575	1.0279E+17
584	1.85	1.03334E+17
585	1.835	1.03874E+17
586	1.8025	1.04405E+17
587	1.83125	1.04946E+17
588	1.7975	1.05478E+17
589	1.6575	1.05969E+17
590	1.71875	1.06479E+17
591	1.79625	1.07013E+17
592	1.7925	1.07547E+17
593	1.79	1.08081E+17
594	1.78875	1.08616E+17
595	1.78375	1.0915E+17
596	1.79875	1.09689E+17
597	1.80375	1.10231E+17
598	1.77375	1.10764E+17
599	1.7625	1.11296E+17
600	1.765	1.11828E+17
601	1.74125	1.12355E+17
602	1.72625	1.12878E+17
603	1.75	1.13409E+17
604	1.775	1.13948E+17
605	1.77	1.14487E+17
606	1.76125	1.15024E+17
607	1.75875	1.15561E+17
608	1.74875	1.16096E+17
609	1.73125	1.16626E+17
610	1.72	1.17154E+17
611	1.715	1.17681E+17
612	1.7325	1.18215E+17
613	1.7075	1.18741E+17
614	1.6725	1.19258E+17
615	1.6975	1.19783E+17
616	1.66375	1.20299E+17
617	1.65	1.20811E+17
618	1.69375	1.21337E+17
619	1.70875	1.2187E+17
620	1.71125	1.22403E+17
621	1.71375	1.22939E+17
622	1.685	1.23466E+17
623	1.67875	1.23992E+17
624	1.6675	1.24516E+17
625	1.64375	1.25033E+17
626	1.64625	1.25551E+17
627	1.68375	1.26082E+17
628	1.69	1.26616E+17
629	1.6875	1.2715E+17
630	1.67125	1.2768E+17
631	1.6525	1.28204E+17
632	1.60875	1.28716E+17
633	1.65625	1.29243E+17
634	1.645	1.29768E+17
635	1.64375	1.30293E+17
636	1.62125	1.30812E+17
637	1.655	1.31342E+17
638	1.66625	1.31877E+17
639	1.6475	1.32407E+17
640	1.615	1.32927E+17
641	1.61	1.33446E+17
642	1.6125	1.33967E+17
643	1.625	1.34493E+17
644	1.615	1.35016E+17
645	1.6225	1.35542E+17
646	1.5975	1.36061E+17
647	1.60625	1.36584E+17
648	1.595	1.37104E+17
649	1.55375	1.37612E+17
650	1.5425	1.38116E+17
651	1.5975	1.38639E+17
652	1.59375	1.39162E+17
653	1.59625	1.39686E+17
654	1.575	1.40205E+17
655	1.5025	1.407E+17
656	1.3525	1.41146E+17
657	1.3925	1.41606E+17
658	1.52	1.4211E+17
659	1.5425	1.42621E+17
660	1.55875	1.43139E+17
661	1.56875	1.4366E+17
662	1.56875	1.44183E+17
663	1.56	1.44703E+17
664	1.55375	1.45222E+17
665	1.56625	1.45746E+17
666	1.55875	1.46268E+17
667	1.54125	1.46786E+17
668	1.535	1.47302E+17
669	1.5525	1.47824E+17
670	1.53375	1.48341E+17
671	1.5275	1.48857E+17
672	1.51375	1.49368E+17
673	1.5175	1.49882E+17
674	1.51	1.50394E+17
675	1.50375	1.50905E+17
676	1.515	1.5142E+17
677	1.50375	1.51932E+17
678	1.50625	1.52446E+17
679	1.4925	1.52956E+17
680	1.49	1.53466E+17
681	1.49	1.53976E+17
682	1.48875	1.54487E+17
683	1.48	1.54996E+17
684	1.47125	1.55502E+17
685	1.465	1.56007E+17
686	1.44	1.56504E+17
687	1.46625	1.57011E+17
688	1.47875	1.57522E+17
689	1.48	1.58035E+17
690	1.47875	1.58549E+17
691	1.46875	1.59059E+17
692	1.45375	1.59565E+17
693	1.45875	1.60074E+17
694	1.4575	1.60583E+17
695	1.4425	1.61087E+17
696	1.44	1.61592E+17
697	1.4375	1.62096E+17
698	1.42375	1.62596E+17
699	1.4275	1.63098E+17
700	1.42	1.63598E+17
701	1.41	1.64095E+17
702	1.4025	1.6459E+17
703	1.41	1.65089E+17
704	1.42	1.65592E+17
705	1.42625	1.66098E+17
706	1.41125	1.66599E+17
707	1.40125	1.67097E+17
708	1.39875	1.67596E+17
709	1.3925	1.68092E+17
710	1.39875	1.68592E+17
711	1.3975	1.69092E+17
712	1.38125	1.69587E+17
713	1.3725	1.70079E+17
714	1.375	1.70573E+17
715	1.35625	1.71061E+17
716	1.3675	1.71553E+17
717	1.36875	1.72047E+17
718	1.35375	1.72536E+17
719	1.31375	1.73011E+17
720	1.34375	1.73498E+17
721	1.35125	1.73988E+17
722	1.3575	1.74481E+17
723	1.3525	1.74973E+17
724	1.3575	1.75468E+17
725	1.35	1.7596E+17
726	1.34125	1.7645E+17
727	1.34	1.7694E+17
728	1.3325	1.77428E+17
729	1.295	1.77903E+17
730	1.32875	1.78391E+17
731	1.31625	1.78875E+17
732	1.325	1.79363E+17
733	1.31625	1.79849E+17
734	1.335	1.80342E+17
735	1.32875	1.80833E+17
736	1.3125	1.81319E+17
737	1.30875	1.81804E+17
738	1.29625	1.82285E+17
739	1.2675	1.82757E+17
740	1.27625	1.83232E+17
741	1.27	1.83705E+17
742	1.265	1.84178E+17
743	1.2875	1.84659E+17
744	1.2975	1.85144E+17
745	1.29125	1.85628E+17
746	1.29	1.86113E+17
747	1.28875	1.86597E+17
748	1.28125	1.87079E+17
749	1.27875	1.87561E+17
750	1.27125	1.88041E+17
751	1.27	1.8852E+17
752	1.27	1.89001E+17
753	1.27125	1.89483E+17
754	1.27875	1.89968E+17
755	1.2775	1.90453E+17
756	1.2625	1.90933E+17
757	1.26125	1.91413E+17
758	1.26625	1.91896E+17
759	1.25375	1.92375E+17
760	1.2575	1.92856E+17
761	1.25125	1.93335E+17
762	1.25	1.93814E+17
763	1.25125	1.94294E+17
764	1.2575	1.94778E+17
765	1.245	1.95257E+17
766	1.2075	1.95722E+17
767	1.21125	1.9619E+17
768	1.225	1.96663E+17
769	1.2125	1.97132E+17
770	1.21	1.97601E+17
771	1.21	1.9807E+17
772	1.21	1.9854E+17
773	1.21	1.99011E+17
774	1.21	1.99482E+17
775	1.21	1.99954E+17
776	1.20875	2.00426E+17
777	1.20125	2.00895E+17
778	1.20125	2.01365E+17
779	1.20625	2.01838E+17
780	1.1925	2.02306E+17
781	1.19125	2.02774E+17
782	1.1975	2.03245E+17
783	1.19	2.03714E+17
784	1.1825	2.0418E+17
785	1.18875	2.0465E+17
786	1.19	2.0512E+17
787	1.18875	2.05591E+17
788	1.18125	2.06059E+17
789	1.17875	2.06527E+17
790	1.17	2.06992E+17
791	1.16	2.07454E+17
792	1.15	2.07912E+17
793	1.14	2.08367E+17
794	1.13125	2.08819E+17
795	1.13125	2.09271E+17
796	1.14125	2.09728E+17
797	1.15625	2.10192E+17
798	1.15	2.10654E+17
799	1.13875	2.11111E+17
800	1.125	2.11564E+17
801	1.1375	2.12023E+17
802	1.1375	2.12482E+17
803	1.12375	2.12936E+17
804	1.125	2.13391E+17
805	1.1075	2.13839E+17
806	1.125	2.14295E+17
807	1.12125	2.14751E+17
808	1.1175	2.15205E+17
809	1.10375	2.15654E+17
810	1.10875	2.16106E+17
811	1.11125	2.16559E+17
812	1.11875	2.17016E+17
813	1.12	2.17474E+17
814	1.11875	2.17933E+17
815	1.11125	2.18388E+17
816	1.11	2.18844E+17
817	1.1075	2.19299E+17
818	1.09	2.19748E+17
819	1.0725	2.2019E+17
820	1.07125	2.20632E+17
821	1.07625	2.21076E+17
822	1.065	2.21517E+17
823	1.07625	2.21962E+17
824	1.07125	2.22406E+17
825	1.07125	2.22851E+17
826	1.07875	2.23299E+17
827	1.07875	2.23748E+17
828	1.07	2.24194E+17
829	1.06125	2.24636E+17
830	1.06	2.25079E+17
831	1.06	2.25522E+17
832	1.05625	2.25964E+17
833	1.03625	2.26399E+17
834	1.0475	2.26838E+17
835	1.05125	2.2728E+17
836	1.0575	2.27724E+17
837	1.05125	2.28167E+17
838	1.04875	2.28609E+17
839	1.0425	2.29049E+17
840	1.04875	2.29493E+17
841	1.0475	2.29936E+17
842	1.0325	2.30373E+17
843	1.0275	2.30809E+17
844	1.01625	2.3124E+17
845	1.03625	2.31681E+17
846	1.03625	2.32122E+17
847	1.01375	2.32554E+17
848	1.01	2.32985E+17
849	0.9975	2.33411E+17
850	0.9335	2.3381E+17
851	0.986	2.34232E+17
852	0.989875	2.34657E+17
853	0.968125	2.35072E+17
854	0.89025	2.35455E+17
855	0.927625	2.35854E+17
856	0.984625	2.36278E+17
857	1.0075	2.36712E+17
858	1.01	2.37148E+17
859	1.00875	2.37584E+17
860	1.001125	2.38017E+17
861	1.0005	2.3845E+17
862	1.008625	2.38888E+17
863	1.0075	2.39325E+17
864	0.9905	2.39756E+17
865	0.9615	2.40174E+17
866	0.880875	2.40558E+17
867	0.922125	2.4096E+17
868	0.96225	2.4138E+17
869	0.9625	2.41801E+17
870	0.973	2.42227E+17
871	0.966375	2.42651E+17
872	0.973125	2.43078E+17
873	0.965125	2.43501E+17
874	0.9495	2.43919E+17
875	0.940875	2.44333E+17
876	0.959125	2.44756E+17
877	0.96425	2.45181E+17
878	0.960375	2.45605E+17
879	0.948375	2.46025E+17
880	0.945	2.46443E+17
881	0.926625	2.46854E+17
882	0.940375	2.47271E+17
883	0.94025	2.47689E+17
884	0.94475	2.48109E+17
885	0.95	2.48532E+17
886	0.92925	2.48946E+17
887	0.925625	2.49359E+17
888	0.939125	2.49779E+17
889	0.943375	2.50201E+17
890	0.941875	2.50623E+17
891	0.938625	2.51043E+17
892	0.931875	2.51462E+17
893	0.920625	2.51875E+17
894	0.9235	2.52291E+17
895	0.92675	2.52708E+17
896	0.932125	2.53128E+17
897	0.9275	2.53547E+17
898	0.923125	2.53964E+17
899	0.91525	2.54378E+17
900	0.912	2.54791E+17
901	0.897375	2.55197E+17
902	0.88525	2.55599E+17
903	0.91625	2.56015E+17
904	0.92075	2.56434E+17
905	0.917125	2.56852E+17
906	0.910125	2.57266E+17
907	0.912375	2.57683E+17
908	0.900875	2.58094E+17
909	0.889	2.58501E+17
910	0.894125	2.5891E+17
911	0.895875	2.59321E+17
912	0.892125	2.5973E+17
913	0.8985	2.60143E+17
914	0.897	2.60555E+17
915	0.890125	2.60965E+17
916	0.893375	2.61377E+17
917	0.889625	2.61787E+17
918	0.888625	2.62198E+17
919	0.890625	2.62609E+17
920	0.884	2.63019E+17
921	0.871	2.63422E+17
922	0.860125	2.63821E+17
923	0.841375	2.64212E+17
924	0.866125	2.64614E+17
925	0.8715	2.6502E+17
926	0.85375	2.65418E+17
927	0.873125	2.65825E+17
928	0.87175	2.66232E+17
929	0.87	2.66639E+17
930	0.869375	2.67045E+17
931	0.87	2.67453E+17
932	0.866375	2.67859E+17
933	0.869	2.68267E+17
934	0.866	2.68674E+17
935	0.856875	2.69077E+17
936	0.85275	2.69479E+17
937	0.854375	2.69881E+17
938	0.858125	2.70286E+17
939	0.855125	2.7069E+17
940	0.841125	2.71088E+17
941	0.82975	2.71481E+17
942	0.81325	2.71866E+17
943	0.831625	2.72261E+17
944	0.822	2.72651E+17
945	0.82425	2.73043E+17
946	0.82975	2.73438E+17
947	0.82875	2.73833E+17
948	0.830875	2.74229E+17
949	0.83225	2.74626E+17
950	0.828375	2.75022E+17
951	0.821625	2.75415E+17
952	0.823125	2.7581E+17
953	0.82025	2.76203E+17
954	0.80775	2.76591E+17
955	0.7785	2.76965E+17
956	0.798375	2.77349E+17
957	0.806125	2.77737E+17
958	0.810875	2.78128E+17
959	0.813375	2.7852E+17
960	0.806375	2.78909E+17
961	0.801	2.79297E+17
962	0.80125	2.79685E+17
963	0.79725	2.80071E+17
964	0.79025	2.80454E+17
965	0.79375	2.80839E+17
966	0.788375	2.81223E+17
967	0.792625	2.81608E+17
968	0.786625	2.81991E+17
969	0.788	2.82375E+17
970	0.7895	2.82761E+17
971	0.783875	2.83144E+17
972	0.786375	2.83528E+17
973	0.780375	2.8391E+17
974	0.771	2.84288E+17
975	0.7735	2.84667E+17
976	0.778875	2.8505E+17
977	0.773875	2.8543E+17
978	0.775875	2.85812E+17
979	0.769375	2.86191E+17
980	0.77375	2.86572E+17
981	0.774	2.86954E+17
982	0.77775	2.87339E+17
983	0.77475	2.87722E+17
984	0.77	2.88103E+17
985	0.770125	2.88485E+17
986	0.766625	2.88865E+17
987	0.76575	2.89245E+17
988	0.763125	2.89625E+17
989	0.756375	2.90001E+17
990	0.757375	2.90378E+17
991	0.76075	2.90757E+17
992	0.7575	2.91135E+17
993	0.7565	2.91513E+17
994	0.758	2.91892E+17
995	0.7545	2.9227E+17
996	0.751875	2.92647E+17
997	0.74425	2.9302E+17
998	0.742875	2.93393E+17
999	0.74225	2.93766E+17
1000	0.743375	2.9414E+17
1001	0.7465	2.94516E+17
1002	0.745875	2.94892E+17
1003	0.73825	2.95265E+17
1004	0.726	2.95631E+17
1005	0.694125	2.95982E+17
1006	0.715375	2.96344E+17
1007	0.729625	2.96714E+17
1008	0.73225	2.97085E+17
1009	0.72975	2.97456E+17
1010	0.730125	2.97827E+17
1011	0.7265	2.98196E+17
1012	0.7245	2.98565E+17
1013	0.721	2.98933E+17
1014	0.721125	2.99301E+17
1015	0.712875	2.99665E+17
1016	0.71275	3.00029E+17
1017	0.709	3.00392E+17
1018	0.712375	3.00757E+17
1019	0.699125	3.01115E+17
1020	0.700625	3.01474E+17
1021	0.7015	3.01835E+17
1022	0.695	3.02192E+17
1023	0.6985	3.02552E+17
1024	0.7005	3.02913E+17
1025	0.69925	3.03273E+17
1026	0.698625	3.03634E+17
1027	0.6965	3.03994E+17
1028	0.696	3.04354E+17
1029	0.691125	3.04711E+17
1030	0.6915	3.0507E+17
1031	0.69025	3.05428E+17
1032	0.6885	3.05785E+17
1033	0.68	3.06139E+17
1034	0.68175	3.06493E+17
1035	0.68375	3.06849E+17
1036	0.683125	3.07205E+17
1037	0.6775	3.07559E+17
1038	0.675	3.07911E+17
1039	0.67775	3.08266E+17
1040	0.67475	3.08619E+17
1041	0.674875	3.08972E+17
1042	0.67425	3.09326E+17
1043	0.670125	3.09677E+17
1044	0.671125	3.1003E+17
1045	0.666375	3.1038E+17
1046	0.6545	3.10724E+17
1047	0.661375	3.11073E+17
1048	0.666875	3.11424E+17
1049	0.664875	3.11775E+17
1050	0.661625	3.12125E+17
1051	0.661375	3.12475E+17
1052	0.658375	3.12823E+17
1053	0.656875	3.13171E+17
1054	0.655625	3.13519E+17
1055	0.657375	3.13868E+17
1056	0.656125	3.14216E+17
1057	0.654375	3.14564E+17
1058	0.647375	3.14909E+17
1059	0.634625	3.15247E+17
1060	0.644	3.1559E+17
1061	0.637375	3.1593E+17
1062	0.644125	3.16275E+17
1063	0.639375	3.16617E+17
1064	0.64475	3.16962E+17
1065	0.643375	3.17306E+17
1066	0.63325	3.17646E+17
1067	0.634625	3.17987E+17
1068	0.6315	3.18326E+17
1069	0.608	3.18653E+17
1070	0.620125	3.18987E+17
1071	0.627625	3.19325E+17
1072	0.629	3.19664E+17
1073	0.62125	3.2E+17
1074	0.62775	3.20339E+17
1075	0.6205	3.20674E+17
1076	0.624	3.21012E+17
1077	0.62425	3.2135E+17
1078	0.62325	3.21688E+17
1079	0.615	3.22022E+17
1080	0.619625	3.22359E+17
1081	0.608375	3.2269E+17
1082	0.6035	3.23018E+17
1083	0.60875	3.2335E+17
1084	0.613125	3.23684E+17
1085	0.61275	3.24019E+17
1086	0.612375	3.24353E+17
1087	0.596125	3.24679E+17
1088	0.60525	3.25011E+17
1089	0.608125	3.25344E+17
1090	0.605125	3.25676E+17
1091	0.606125	3.26008E+17
1092	0.59775	3.26337E+17
1093	0.58875	3.26661E+17
1094	0.567625	3.26973E+17
1095	0.580625	3.27293E+17
1096	0.58625	3.27616E+17
1097	0.589875	3.27942E+17
1098	0.586875	3.28266E+17
1099	0.584875	3.28589E+17
1100	0.597625	3.2892E+17
1101	0.597	3.29251E+17
1102	0.58575	3.29575E+17
1103	0.593125	3.29905E+17
1104	0.593	3.30234E+17
1105	0.591125	3.30563E+17
1106	0.589625	3.30891E+17
1107	0.586625	3.31217E+17
1108	0.58675	3.31544E+17
1109	0.58625	3.31872E+17
1110	0.586375	3.32199E+17
1111	0.5835	3.32525E+17
1112	0.582375	3.32851E+17
1113	0.579375	3.33175E+17
1114	0.583	3.33502E+17
1115	0.581375	3.33828E+17
1116	0.576875	3.34152E+17
1117	0.580625	3.34478E+17
1118	0.573375	3.34801E+17
1119	0.571625	3.35123E+17
1120	0.56975	3.35444E+17
1121	0.572	3.35766E+17
1122	0.5745	3.36091E+17
1123	0.574	3.36415E+17
1124	0.57275	3.36739E+17
1125	0.56825	3.3706E+17
1126	0.55625	3.37376E+17
1127	0.561625	3.37694E+17
1128	0.56725	3.38016E+17
1129	0.5675	3.38338E+17
1130	0.565	3.38659E+17
1131	0.56775	3.38983E+17
1132	0.56875	3.39306E+17
1133	0.563125	3.39627E+17
1134	0.562875	3.39949E+17
1135	0.56325	3.4027E+17
1136	0.563125	3.40592E+17
1137	0.552625	3.40908E+17
1138	0.546125	3.41221E+17
1139	0.55225	3.41537E+17
1140	0.554	3.41855E+17
1141	0.546125	3.42168E+17
1142	0.552875	3.42486E+17
1143	0.55	3.42802E+17
1144	0.54625	3.43117E+17
1145	0.549875	3.43434E+17
1146	0.5535	3.43753E+17
1147	0.5535	3.44072E+17
1148	0.55025	3.4439E+17
1149	0.548	3.44707E+17
1150	0.546125	3.45023E+17
1151	0.54475	3.45338E+17
1152	0.5425	3.45653E+17
1153	0.543375	3.45968E+17
1154	0.5465	3.46285E+17
1155	0.546125	3.46602E+17
1156	0.541375	3.46917E+17
1157	0.543375	3.47233E+17
1158	0.542125	3.47549E+17
1159	0.53525	3.47861E+17
1160	0.5285	3.4817E+17
1161	0.522	3.48475E+17
1162	0.53175	3.48786E+17
1163	0.53525	3.49099E+17
1164	0.52925	3.49409E+17
1165	0.532375	3.49721E+17
1166	0.524625	3.50029E+17
1167	0.5295	3.50339E+17
1168	0.53125	3.50652E+17
1169	0.519875	3.50957E+17
1170	0.527625	3.51268E+17
1171	0.53075	3.51581E+17
1172	0.5305	3.51893E+17
1173	0.527625	3.52205E+17
1174	0.52675	3.52516E+17
1175	0.519	3.52823E+17
1176	0.51275	3.53126E+17
1177	0.520625	3.53434E+17
1178	0.5175	3.53741E+17
1179	0.516125	3.54047E+17
1180	0.520625	3.54356E+17
1181	0.518375	3.54664E+17
1182	0.5135	3.5497E+17
1183	0.4945	3.55264E+17
1184	0.50875	3.55567E+17
1185	0.51525	3.55874E+17
1186	0.515125	3.56181E+17
1187	0.514375	3.56489E+17
1188	0.507375	3.56792E+17
1189	0.49	3.57085E+17
1190	0.50425	3.57387E+17
1191	0.51275	3.57694E+17
1192	0.512125	3.58001E+17
1193	0.511125	3.58308E+17
1194	0.510375	3.58615E+17
1195	0.506625	3.58919E+17
1196	0.505625	3.59223E+17
1197	0.502	3.59526E+17
1198	0.491125	3.59822E+17
1199	0.4795	3.60111E+17
1200	0.4975	3.60411E+17
1201	0.505375	3.60717E+17
1202	0.5045	3.61022E+17
1203	0.49025	3.61319E+17
1204	0.489	3.61615E+17
1205	0.49975	3.61918E+17
1206	0.499625	3.62221E+17
1207	0.499375	3.62524E+17
1208	0.488375	3.62821E+17
1209	0.47225	3.63108E+17
1210	0.487125	3.63405E+17
1211	0.482125	3.63698E+17
1212	0.489625	3.63997E+17
1213	0.4915	3.64297E+17
1214	0.4895	3.64596E+17
1215	0.48975	3.64895E+17
1216	0.489	3.65194E+17
1217	0.487875	3.65493E+17
1218	0.48575	3.65791E+17
1219	0.48275	3.66087E+17
1220	0.483625	3.66384E+17
1221	0.482875	3.6668E+17
1222	0.480625	3.66976E+17
1223	0.477375	3.67269E+17
1224	0.480875	3.67566E+17
1225	0.4795	3.67861E+17
1226	0.478375	3.68156E+17
1227	0.47025	3.68446E+17
1228	0.473625	3.68739E+17
1229	0.476375	3.69034E+17
1230	0.475125	3.69328E+17
1231	0.4735	3.69621E+17
1232	0.469875	3.69912E+17
1233	0.4705	3.70204E+17
1234	0.468875	3.70495E+17
1235	0.46675	3.70785E+17
1236	0.4685	3.71076E+17
1237	0.468	3.71368E+17
1238	0.4665	3.71658E+17
1239	0.462375	3.71946E+17
1240	0.46075	3.72234E+17
1241	0.46325	3.72523E+17
1242	0.461625	3.72812E+17
1243	0.457375	3.73098E+17
1244	0.455375	3.73383E+17
1245	0.45625	3.73668E+17
1246	0.4585	3.73956E+17
1247	0.4585	3.74243E+17
1248	0.4605	3.74533E+17
1249	0.46	3.74822E+17
1250	0.45875	3.7511E+17
1251	0.455875	3.75397E+17
1252	0.45275	3.75682E+17
1253	0.45375	3.75968E+17
1254	0.453875	3.76255E+17
1255	0.453	3.76541E+17
1256	0.45175	3.76826E+17
1257	0.449625	3.7711E+17
1258	0.450375	3.77395E+17
1259	0.448625	3.7768E+17
1260	0.449625	3.77965E+17
1261	0.448375	3.78249E+17
1262	0.444375	3.78531E+17
1263	0.446625	3.78815E+17
1264	0.442875	3.79097E+17
1265	0.44325	3.79379E+17
1266	0.44475	3.79662E+17
1267	0.4395	3.79942E+17
1268	0.436875	3.80221E+17
1269	0.43975	3.80502E+17
1270	0.441875	3.80784E+17
1271	0.442625	3.81067E+17
1272	0.44125	3.81349E+17
1273	0.440625	3.81632E+17
1274	0.43875	3.81913E+17
1275	0.44075	3.82195E+17
1276	0.441875	3.82479E+17
1277	0.441875	3.82763E+17
1278	0.44075	3.83046E+17
1279	0.438	3.83328E+17
1280	0.433875	3.83608E+17
1281	0.418625	3.83877E+17
1282	0.386375	3.84127E+17
1283	0.409375	3.84391E+17
1284	0.425375	3.84666E+17
1285	0.42875	3.84943E+17
1286	0.429125	3.8522E+17
1287	0.4295	3.85499E+17
1288	0.4275	3.85776E+17
1289	0.42675	3.86052E+17
1290	0.4205	3.86325E+17
1291	0.42175	3.86599E+17
1292	0.422875	3.86874E+17
1293	0.422125	3.87149E+17
1294	0.41725	3.8742E+17
1295	0.41875	3.87693E+17
1296	0.4195	3.87967E+17
1297	0.416875	3.88239E+17
1298	0.414	3.88509E+17
1299	0.41625	3.88781E+17
1300	0.415125	3.89053E+17
1301	0.413625	3.89323E+17
1302	0.41025	3.89592E+17
1303	0.408	3.89859E+17
1304	0.40675	3.90126E+17
1305	0.4095	3.90395E+17
1306	0.41	3.90665E+17
1307	0.409875	3.90934E+17
1308	0.409125	3.91203E+17
1309	0.40875	3.91472E+17
1310	0.407125	3.91741E+17
1311	0.40575	3.92008E+17
1312	0.401875	3.92274E+17
1313	0.394	3.92534E+17
1314	0.400125	3.92798E+17
1315	0.393625	3.93059E+17
1316	0.394625	3.9332E+17
1317	0.399375	3.93585E+17
1318	0.3965	3.93848E+17
1319	0.4	3.94113E+17
1320	0.39875	3.94378E+17
1321	0.3955	3.94641E+17
1322	0.395	3.94903E+17
1323	0.395	3.95166E+17
1324	0.394875	3.95429E+17
1325	0.393875	3.95692E+17
1326	0.391875	3.95953E+17
1327	0.389625	3.96214E+17
1328	0.389375	3.96474E+17
1329	0.382	3.96729E+17
1330	0.38475	3.96987E+17
1331	0.3865	3.97245E+17
1332	0.381125	3.97501E+17
1333	0.386	3.9776E+17
1334	0.386875	3.98019E+17
1335	0.385625	3.98278E+17
1336	0.382625	3.98535E+17
1337	0.382625	3.98793E+17
1338	0.380625	3.99049E+17
1339	0.376375	3.99303E+17
1340	0.37525	3.99556E+17
1341	0.38075	3.99812E+17
1342	0.38025	4.00069E+17
1343	0.38	4.00326E+17
1344	0.38	4.00583E+17
1345	0.3795	4.0084E+17
1346	0.37675	4.01095E+17
1347	0.377625	4.01351E+17
1348	0.377	4.01606E+17
1349	0.3755	4.01861E+17
1350	0.37175	4.02114E+17
1351	0.37225	4.02367E+17
1352	0.3745	4.02621E+17
1353	0.374	4.02876E+17
1354	0.3725	4.0313E+17
1355	0.36875	4.03381E+17
1356	0.36825	4.03632E+17
1357	0.365375	4.03882E+17
1358	0.369125	4.04134E+17
1359	0.368625	4.04386E+17
1360	0.366125	4.04637E+17
1361	0.36925	4.04889E+17
1362	0.36825	4.05142E+17
1363	0.3635	4.05391E+17
1364	0.36625	4.05642E+17
1365	0.366125	4.05894E+17
1366	0.3655	4.06145E+17
1367	0.363	4.06395E+17
1368	0.364625	4.06646E+17
1369	0.359875	4.06893E+17
1370	0.359	4.07141E+17
1371	0.3595	4.07389E+17
1372	0.3625	4.07639E+17
1373	0.363	4.0789E+17
1374	0.36225	4.0814E+17
1375	0.357375	4.08387E+17
1376	0.354875	4.08633E+17
1377	0.357375	4.08881E+17
1378	0.3575	4.09128E+17
1379	0.35925	4.09378E+17
1380	0.3575	4.09626E+17
1381	0.35725	4.09874E+17
1382	0.35375	4.1012E+17
1383	0.354125	4.10366E+17
1384	0.35525	4.10614E+17
1385	0.352875	4.1086E+17
1386	0.354125	4.11107E+17
1387	0.35175	4.11352E+17
1388	0.352875	4.11599E+17
1389	0.353	4.11845E+17
1390	0.3485	4.12089E+17
1391	0.351375	4.12335E+17
1392	0.35175	4.12581E+17
1393	0.35	4.12826E+17
1394	0.34825	4.13071E+17
1395	0.348125	4.13315E+17
1396	0.348875	4.1356E+17
1397	0.349125	4.13805E+17
1398	0.34975	4.14051E+17
1399	0.347875	4.14296E+17
1400	0.34025	4.14536E+17
1401	0.339625	4.14775E+17
1402	0.342875	4.15017E+17
1403	0.340625	4.15258E+17
1404	0.34075	4.15498E+17
1405	0.340375	4.15739E+17
1406	0.341625	4.1598E+17
1407	0.341	4.16222E+17
1408	0.34025	4.16463E+17
1409	0.34075	4.16704E+17
1410	0.339875	4.16946E+17
1411	0.337125	4.17185E+17
1412	0.330625	4.1742E+17
1413	0.333	4.17656E+17
1414	0.3365	4.17896E+17
1415	0.33675	4.18136E+17
1416	0.3355	4.18375E+17
1417	0.336875	4.18615E+17
1418	0.337375	4.18855E+17
1419	0.334375	4.19094E+17
1420	0.3335	4.19332E+17
1421	0.33475	4.19572E+17
1422	0.329875	4.19808E+17
1423	0.328875	4.20043E+17
1424	0.32875	4.20279E+17
1425	0.331125	4.20516E+17
1426	0.32475	4.20749E+17
1427	0.326875	4.20984E+17
1428	0.32875	4.2122E+17
1429	0.323875	4.21453E+17
1430	0.323125	4.21685E+17
1431	0.32475	4.21919E+17
1432	0.330125	4.22157E+17
1433	0.33025	4.22395E+17
1434	0.326	4.2263E+17
1435	0.32675	4.22866E+17
1436	0.327125	4.23102E+17
1437	0.327625	4.23339E+17
1438	0.326625	4.23575E+17
1439	0.326625	4.23812E+17
1440	0.3155	4.2404E+17
1441	0.316375	4.2427E+17
1442	0.316375	4.24499E+17
1443	0.317875	4.2473E+17
1444	0.318875	4.24962E+17
1445	0.31925	4.25194E+17
1446	0.320375	4.25427E+17
1447	0.31875	4.25659E+17
1448	0.3205	4.25892E+17
1449	0.319875	4.26126E+17
1450	0.31775	4.26357E+17
1451	0.3145	4.26587E+17
1452	0.314125	4.26817E+17
1453	0.314625	4.27047E+17
1454	0.313125	4.27276E+17
1455	0.311875	4.27504E+17
1456	0.3105	4.27731E+17
1457	0.31225	4.2796E+17
1458	0.315625	4.28192E+17
1459	0.3165	4.28424E+17
1460	0.31425	4.28655E+17
1461	0.31275	4.28885E+17
1462	0.310125	4.29113E+17
1463	0.30825	4.2934E+17
1464	0.3085	4.29567E+17
1465	0.310875	4.29796E+17
1466	0.308375	4.30024E+17
1467	0.311625	4.30254E+17
1468	0.309125	4.30482E+17
1469	0.31125	4.30712E+17
1470	0.3095	4.30941E+17
1471	0.305	4.31166E+17
1472	0.30575	4.31393E+17
1473	0.304875	4.31619E+17
1474	0.298875	4.3184E+17
1475	0.302375	4.32065E+17
1476	0.30375	4.3229E+17
1477	0.303	4.32516E+17
1478	0.3025	4.3274E+17
1479	0.30475	4.32967E+17
1480	0.305375	4.33195E+17
1481	0.302875	4.3342E+17
1482	0.30375	4.33647E+17
1483	0.299375	4.3387E+17
1484	0.302	4.34096E+17
1485	0.305	4.34323E+17
1486	0.30225	4.34549E+17
1487	0.295875	4.34771E+17
1488	0.273625	4.34976E+17
1489	0.295	4.35197E+17
1490	0.300875	4.35422E+17
1491	0.301375	4.35648E+17
1492	0.299	4.35873E+17
1493	0.3015	4.36099E+17
1494	0.301875	4.36326E+17
1495	0.299875	4.36552E+17
1496	0.293	4.36772E+17
1497	0.2965	4.36995E+17
1498	0.29825	4.3722E+17
1499	0.29625	4.37444E+17
1500	0.300125	4.3767E+17
1501	0.29975	4.37896E+17
1502	0.293875	4.38118E+17
1503	0.27425	4.38326E+17
1504	0.27975	4.38538E+17
1505	0.274125	4.38745E+17
1506	0.283625	4.3896E+17
1507	0.29225	4.39182E+17
1508	0.29025	4.39402E+17
1509	0.289	4.39621E+17
1510	0.29325	4.39844E+17
1511	0.29325	4.40067E+17
1512	0.288625	4.40286E+17
1513	0.286875	4.40505E+17
1514	0.285625	4.40722E+17
1515	0.2875	4.40941E+17
1516	0.286875	4.4116E+17
1517	0.285875	4.41378E+17
1518	0.28875	4.41599E+17
1519	0.286	4.41818E+17
1520	0.28675	4.42037E+17
1521	0.28175	4.42252E+17
1522	0.280625	4.42467E+17
1523	0.283625	4.42685E+17
1524	0.284	4.42902E+17
1525	0.279875	4.43117E+17
1526	0.284625	4.43336E+17
1527	0.283625	4.43554E+17
1528	0.2845	4.43772E+17
1529	0.28125	4.43989E+17
1530	0.271	4.44197E+17
1531	0.281	4.44414E+17
1532	0.282625	4.44631E+17
1533	0.27975	4.44847E+17
1534	0.276	4.4506E+17
1535	0.278	4.45275E+17
1536	0.280625	4.45492E+17
1537	0.28	4.45708E+17
1538	0.274625	4.45921E+17
1539	0.27625	4.46135E+17
1540	0.270625	4.46344E+17
1541	0.27275	4.46556E+17
1542	0.27475	4.46769E+17
1543	0.27525	4.46983E+17
1544	0.276875	4.47198E+17
1545	0.27775	4.47414E+17
1546	0.27675	4.47629E+17
1547	0.2735	4.47842E+17
1548	0.268625	4.48051E+17
1549	0.271875	4.48263E+17
1550	0.2705	4.48474E+17
1551	0.27125	4.48685E+17
1552	0.27325	4.48899E+17
1553	0.270625	4.4911E+17
1554	0.266	4.49318E+17
1555	0.26625	4.49526E+17
1556	0.264375	4.49733E+17
1557	0.268875	4.49944E+17
1558	0.26825	4.50154E+17
1559	0.267625	4.50364E+17
1560	0.266	4.50573E+17
1561	0.269125	4.50784E+17
1562	0.268125	4.50995E+17
1563	0.266625	4.51205E+17
1564	0.264	4.51412E+17
1565	0.266	4.51622E+17
1566	0.263625	4.5183E+17
1567	0.263375	4.52037E+17
1568	0.260875	4.52243E+17
1569	0.262375	4.5245E+17
1570	0.262	4.52657E+17
1571	0.26625	4.52867E+17
1572	0.2665	4.53078E+17
1573	0.263375	4.53287E+17
1574	0.26025	4.53493E+17
1575	0.2505	4.53691E+17
1576	0.2555	4.53894E+17
1577	0.242375	4.54086E+17
1578	0.255125	4.54289E+17
1579	0.261625	4.54496E+17
1580	0.263875	4.54706E+17
1581	0.2635	4.54916E+17
1582	0.255875	4.55119E+17
1583	0.257	4.55324E+17
1584	0.2555	4.55528E+17
1585	0.2605	4.55735E+17
1586	0.258125	4.55941E+17
1587	0.25475	4.56145E+17
1588	0.248375	4.56343E+17
1589	0.2355	4.56532E+17
1590	0.240625	4.56724E+17
1591	0.242625	4.56918E+17
1592	0.252125	4.5712E+17
1593	0.257125	4.57326E+17
1594	0.2565	4.57532E+17
1595	0.256125	4.57737E+17
1596	0.247125	4.57936E+17
1597	0.249375	4.58136E+17
1598	0.254375	4.58341E+17
1599	0.251125	4.58543E+17
1600	0.251625	4.58745E+17
1601	0.2465	4.58944E+17
1602	0.2485	4.59144E+17
1603	0.249125	4.59345E+17
1604	0.2495	4.59546E+17
1605	0.247375	4.59746E+17
1606	0.24675	4.59946E+17
1607	0.245875	4.60144E+17
1608	0.24925	4.60346E+17
1609	0.247125	4.60546E+17
1610	0.236	4.60737E+17
1611	0.24	4.60932E+17
1612	0.241625	4.61128E+17
1613	0.245125	4.61327E+17
1614	0.24425	4.61525E+17
1615	0.2425	4.61722E+17
1616	0.234	4.61912E+17
1617	0.2365	4.62105E+17
1618	0.24275	4.62302E+17
1619	0.24125	4.62499E+17
1620	0.235	4.6269E+17
1621	0.234375	4.62881E+17
1622	0.23725	4.63075E+17
1623	0.241375	4.63272E+17
1624	0.241375	4.63469E+17
1625	0.238	4.63664E+17
1626	0.239625	4.6386E+17
1627	0.240125	4.64056E+17
1628	0.240875	4.64254E+17
1629	0.2405	4.64451E+17
1630	0.23775	4.64646E+17
1631	0.23875	4.64842E+17
1632	0.238625	4.65038E+17
1633	0.236	4.65231E+17
1634	0.233875	4.65424E+17
1635	0.2365	4.65618E+17
1636	0.23575	4.65812E+17
1637	0.22825	4.66E+17
1638	0.226375	4.66187E+17
1639	0.223125	4.66371E+17
1640	0.22525	4.66557E+17
1641	0.22425	4.66742E+17
1642	0.224625	4.66927E+17
1643	0.228	4.67116E+17
1644	0.22625	4.67303E+17
1645	0.225625	4.6749E+17
1646	0.2285	4.67679E+17
1647	0.229	4.67869E+17
1648	0.228375	4.68058E+17
1649	0.225125	4.68245E+17
1650	0.227	4.68433E+17
1651	0.225	4.6862E+17
1652	0.227125	4.68809E+17
1653	0.225625	4.68997E+17
1654	0.226375	4.69185E+17
1655	0.224625	4.69372E+17
1656	0.22575	4.6956E+17
1657	0.225875	4.69748E+17
1658	0.22475	4.69936E+17
1659	0.222625	4.70122E+17
1660	0.223875	4.70309E+17
1661	0.22475	4.70496E+17
1662	0.224	4.70684E+17
1663	0.223125	4.7087E+17
1664	0.22275	4.71057E+17
1665	0.221	4.71242E+17
1666	0.219375	4.71426E+17
1667	0.219375	4.7161E+17
1668	0.21675	4.71792E+17
1669	0.21825	4.71975E+17
1670	0.221375	4.72161E+17
1671	0.22	4.72346E+17
1672	0.213625	4.72526E+17
1673	0.215875	4.72707E+17
1674	0.21825	4.72891E+17
1675	0.216	4.73073E+17
1676	0.213625	4.73253E+17
1677	0.214875	4.73435E+17
1678	0.2155	4.73616E+17
1679	0.2125	4.73796E+17
1680	0.205875	4.7397E+17
1681	0.199625	4.74139E+17
1682	0.203125	4.74311E+17
1683	0.208625	4.74487E+17
1684	0.21175	4.74667E+17
1685	0.2125	4.74847E+17
1686	0.2105	4.75025E+17
1687	0.210875	4.75204E+17
1688	0.210625	4.75383E+17
1689	0.208375	4.7556E+17
1690	0.2085	4.75738E+17
1691	0.2115	4.75918E+17
1692	0.211875	4.76098E+17
1693	0.211125	4.76278E+17
1694	0.211	4.76458E+17
1695	0.210875	4.76637E+17
1696	0.21	4.76817E+17
1697	0.209125	4.76995E+17
1698	0.208875	4.77174E+17
1699	0.20775	4.77351E+17
1700	0.205375	4.77527E+17
1701	0.205	4.77702E+17
1702	0.204958333	4.77878E+17
1703	0.204666667	4.78053E+17
1704	0.204333333	4.78228E+17
1705	0.203916667	4.78403E+17
1706	0.203	4.78577E+17
1707	0.202	4.78751E+17
1708	0.201	4.78924E+17
1709	0.2	4.79096E+17
1710	0.1992	4.79267E+17
1711	0.1996	4.79439E+17
1712	0.2002	4.79611E+17
1713	0.2008	4.79784E+17
1714	0.2014	4.79958E+17
1715	0.201825	4.80132E+17
1716	0.2012	4.80306E+17
1717	0.2004	4.80479E+17
1718	0.1996	4.80651E+17
1719	0.1988	4.80823E+17
1720	0.198075	4.80995E+17
1721	0.1978	4.81166E+17
1722	0.1976	4.81337E+17
1723	0.1974	4.81508E+17
1724	0.1972	4.81679E+17
1725	0.196925	4.8185E+17
1726	0.1962	4.82021E+17
1727	0.1954	4.8219E+17
1728	0.1946	4.82359E+17
1729	0.1938	4.82528E+17
1730	0.192825	4.82696E+17
1731	0.1908	4.82862E+17
1732	0.1886	4.83026E+17
1733	0.1864	4.83189E+17
1734	0.1842	4.8335E+17
1735	0.182475	4.83509E+17
1736	0.1836	4.83669E+17
1737	0.1852	4.83831E+17
1738	0.1868	4.83994E+17
1739	0.1884	4.84159E+17
1740	0.1897	4.84325E+17
1741	0.1892	4.84491E+17
1742	0.1884	4.84656E+17
1743	0.1876	4.84821E+17
1744	0.1868	4.84985E+17
1745	0.186075	4.85148E+17
1746	0.1858	4.85311E+17
1747	0.1856	4.85474E+17
1748	0.1854	4.85637E+17
1749	0.1852	4.858E+17
1750	0.185025	4.85963E+17
1751	0.185	4.86126E+17
1752	0.185	4.86289E+17
1753	0.185	4.86452E+17
1754	0.185	4.86616E+17
1755	0.184925	4.86779E+17
1756	0.1844	4.86942E+17
1757	0.1838	4.87104E+17
1758	0.1832	4.87266E+17
1759	0.1826	4.87428E+17
1760	0.18205	4.87589E+17
1761	0.1818	4.8775E+17
1762	0.1816	4.87911E+17
1763	0.1814	4.88072E+17
1764	0.1812	4.88233E+17
1765	0.181	4.88394E+17
1766	0.1808	4.88554E+17
1767	0.1806	4.88715E+17
1768	0.1804	4.88875E+17
1769	0.1802	4.89036E+17
1770	0.179925	4.89196E+17
1771	0.1792	4.89355E+17
1772	0.1784	4.89515E+17
1773	0.1776	4.89673E+17
1774	0.1768	4.89831E+17
1775	0.1761	4.89988E+17
1776	0.176	4.90145E+17
1777	0.176	4.90303E+17
1778	0.176	4.9046E+17
1779	0.176	4.90618E+17
1780	0.17595	4.90775E+17
1781	0.1756	4.90932E+17
1782	0.1752	4.9109E+17
1783	0.1748	4.91246E+17
1784	0.1744	4.91403E+17
1785	0.17405	4.91559E+17
1786	0.174	4.91715E+17
1787	0.174	4.91872E+17
1788	0.174	4.92028E+17
1789	0.174	4.92185E+17
1790	0.173925	4.92342E+17
1791	0.1734	4.92498E+17
1792	0.1728	4.92654E+17
1793	0.1722	4.92809E+17
1794	0.1716	4.92964E+17
1795	0.171	4.93118E+17
1796	0.1704	4.93272E+17
1797	0.1698	4.93426E+17
1798	0.1692	4.93579E+17
1799	0.1686	4.93731E+17
1800	0.1681	4.93884E+17
1801	0.1682	4.94036E+17
1802	0.1684	4.94189E+17
1803	0.1686	4.94342E+17
1804	0.1688	4.94495E+17
1805	0.168975	4.94648E+17
1806	0.169	4.94802E+17
1807	0.169	4.94956E+17
1808	0.169	4.95109E+17
1809	0.169	4.95263E+17
1810	0.16865	4.95417E+17
1811	0.1662	4.95568E+17
1812	0.1634	4.95717E+17
1813	0.1606	4.95864E+17
1814	0.1578	4.96008E+17
1815	0.155475	4.9615E+17
1816	0.156	4.96292E+17
1817	0.157	4.96436E+17
1818	0.158	4.9658E+17
1819	0.159	4.96726E+17
1820	0.15995	4.96872E+17
1821	0.1606	4.97019E+17
1822	0.1612	4.97167E+17
1823	0.1618	4.97315E+17
1824	0.1624	4.97464E+17
1825	0.162825	4.97614E+17
1826	0.1622	4.97763E+17
1827	0.1614	4.97911E+17
1828	0.1606	4.98059E+17
1829	0.1598	4.98206E+17
1830	0.159075	4.98352E+17
1831	0.1588	4.98499E+17
1832	0.1586	4.98645E+17
1833	0.1584	4.98791E+17
1834	0.1582	4.98937E+17
1835	0.157975	4.99083E+17
1836	0.1576	4.99228E+17
1837	0.1572	4.99374E+17
1838	0.1568	4.99519E+17
1839	0.1564	4.99663E+17
1840	0.155975	4.99808E+17
1841	0.1554	4.99952E+17
1842	0.1548	5.00095E+17
1843	0.1542	5.00238E+17
1844	0.1536	5.00381E+17
1845	0.153075	5.00523E+17
1846	0.153	5.00665E+17
1847	0.153	5.00807E+17
1848	0.153	5.00949E+17
1849	0.153	5.01091E+17
1850	0.15295	5.01234E+17
1851	0.1526	5.01376E+17
1852	0.1522	5.01518E+17
1853	0.1518	5.01659E+17
1854	0.1514	5.01801E+17
1855	0.151	5.01941E+17
1856	0.1506	5.02082E+17
1857	0.1502	5.02222E+17
1858	0.1498	5.02362E+17
1859	0.1494	5.02502E+17
1860	0.149	5.02642E+17
1861	0.1486	5.02781E+17
1862	0.1482	5.0292E+17
1863	0.1478	5.03058E+17
1864	0.1474	5.03196E+17
1865	0.147025	5.03334E+17
1866	0.1468	5.03472E+17
1867	0.1466	5.0361E+17
1868	0.1464	5.03747E+17
1869	0.1462	5.03885E+17
1870	0.145675	5.04022E+17
1871	0.1432	5.04157E+17
1872	0.1404	5.04289E+17
1873	0.1376	5.04419E+17
1874	0.1348	5.04546E+17
1875	0.132725	5.04671E+17
1876	0.135	5.04798E+17
1877	0.138	5.04929E+17
1878	0.141	5.05062E+17
1879	0.144	5.05198E+17
1880	0.1466	5.05337E+17
1881	0.1468	5.05475E+17
1882	0.1466	5.05614E+17
1883	0.1464	5.05753E+17
1884	0.1462	5.05892E+17
1885	0.145875	5.0603E+17
1886	0.1448	5.06167E+17
1887	0.1436	5.06304E+17
1888	0.1424	5.06439E+17
1889	0.1412	5.06573E+17
1890	0.1401	5.06706E+17
1891	0.1396	5.06839E+17
1892	0.1392	5.06972E+17
1893	0.1388	5.07104E+17
1894	0.1384	5.07236E+17
1895	0.1381	5.07367E+17
1896	0.1384	5.07499E+17
1897	0.1388	5.07632E+17
1898	0.1392	5.07765E+17
1899	0.1396	5.07898E+17
1900	0.139925	5.08032E+17
1901	0.1398	5.08166E+17
1902	0.1396	5.08299E+17
1903	0.1394	5.08433E+17
1904	0.1392	5.08566E+17
1905	0.138975	5.08699E+17
1906	0.1386	5.08832E+17
1907	0.1382	5.08965E+17
1908	0.1378	5.09097E+17
1909	0.1374	5.09229E+17
1910	0.137025	5.09361E+17
1911	0.1368	5.09492E+17
1912	0.1366	5.09623E+17
1913	0.1364	5.09755E+17
1914	0.1362	5.09886E+17
1915	0.136	5.10017E+17
1916	0.1358	5.10148E+17
1917	0.1356	5.10279E+17
1918	0.1354	5.10409E+17
1919	0.1352	5.1054E+17
1920	0.135	5.1067E+17
1921	0.1348	5.108E+17
1922	0.1346	5.10931E+17
1923	0.1344	5.11061E+17
1924	0.1342	5.11191E+17
1925	0.13395	5.1132E+17
1926	0.1334	5.1145E+17
1927	0.1328	5.11578E+17
1928	0.1322	5.11707E+17
1929	0.1316	5.11834E+17
1930	0.1311	5.11962E+17
1931	0.1312	5.12089E+17
1932	0.1314	5.12217E+17
1933	0.1316	5.12345E+17
1934	0.1318	5.12473E+17
1935	0.131925	5.12601E+17
1936	0.1316	5.1273E+17
1937	0.1312	5.12857E+17
1938	0.1308	5.12985E+17
1939	0.1304	5.13112E+17
1940	0.1298	5.13239E+17
1941	0.128	5.13364E+17
1942	0.126	5.13487E+17
1943	0.124	5.13608E+17
1944	0.122	5.13727E+17
1945	0.1204	5.13845E+17
1946	0.1212	5.13964E+17
1947	0.1224	5.14084E+17
1948	0.1236	5.14205E+17
1949	0.1248	5.14327E+17
1950	0.1259	5.14451E+17
1951	0.1264	5.14575E+17
1952	0.1268	5.14699E+17
1953	0.1272	5.14824E+17
1954	0.1276	5.1495E+17
1955	0.1279	5.15076E+17
1956	0.1276	5.15201E+17
1957	0.1272	5.15326E+17
1958	0.1268	5.15451E+17
1959	0.1264	5.15576E+17
1960	0.125975	5.157E+17
1961	0.1254	5.15824E+17
1962	0.1248	5.15947E+17
1963	0.1242	5.1607E+17
1964	0.1236	5.16192E+17
1965	0.1231	5.16314E+17
1966	0.1232	5.16435E+17
1967	0.1234	5.16557E+17
1968	0.1236	5.1668E+17
1969	0.1238	5.16803E+17
1970	0.123925	5.16925E+17
1971	0.1236	5.17048E+17
1972	0.1232	5.1717E+17
1973	0.1228	5.17292E+17
1974	0.1224	5.17414E+17
1975	0.122	5.17535E+17
1976	0.1216	5.17656E+17
1977	0.1212	5.17776E+17
1978	0.1208	5.17896E+17
1979	0.1204	5.18016E+17
1980	0.120025	5.18136E+17
1981	0.1198	5.18255E+17
1982	0.1196	5.18375E+17
1983	0.1194	5.18494E+17
1984	0.1192	5.18613E+17
1985	0.11905	5.18732E+17
1986	0.1192	5.18851E+17
1987	0.1194	5.1897E+17
1988	0.1196	5.1909E+17
1989	0.1198	5.19209E+17
1990	0.1199	5.1933E+17
1991	0.1194	5.19449E+17
1992	0.1188	5.19568E+17
1993	0.1182	5.19687E+17
1994	0.1176	5.19805E+17
1995	0.117075	5.19922E+17
1996	0.117	5.2004E+17
1997	0.117	5.20157E+17
1998	0.117	5.20275E+17
1999	0.117	5.20392E+17
2000	0.11695	5.2051E+17
2001	0.1166	5.20628E+17
2002	0.1162	5.20745E+17
2003	0.1158	5.20861E+17
2004	0.1154	5.20978E+17
2005	0.11505	5.21094E+17
2006	0.115	5.2121E+17
2007	0.115	5.21326E+17
2008	0.115	5.21442E+17
2009	0.115	5.21558E+17
2010	0.114975	5.21675E+17
2011	0.1148	5.21791E+17
2012	0.1146	5.21907E+17
2013	0.1144	5.22023E+17
2014	0.1142	5.22138E+17
2015	0.113975	5.22254E+17
2016	0.1136	5.22369E+17
2017	0.1132	5.22484E+17
2018	0.1128	5.22598E+17
2019	0.1124	5.22713E+17
2020	0.11205	5.22826E+17
2021	0.112	5.2294E+17
2022	0.112	5.23054E+17
2023	0.112	5.23168E+17
2024	0.112	5.23282E+17
2025	0.11195	5.23396E+17
2026	0.1116	5.2351E+17
2027	0.1112	5.23624E+17
2028	0.1108	5.23737E+17
2029	0.1104	5.23849E+17
2030	0.110025	5.23962E+17
2031	0.1098	5.24074E+17
2032	0.1096	5.24186E+17
2033	0.1094	5.24298E+17
2034	0.1092	5.24409E+17
2035	0.108975	5.24521E+17
2036	0.1086	5.24632E+17
2037	0.1082	5.24743E+17
2038	0.1078	5.24854E+17
2039	0.1074	5.24964E+17
2040	0.107075	5.25074E+17
2041	0.1072	5.25184E+17
2042	0.1074	5.25294E+17
2043	0.1076	5.25405E+17
2044	0.1078	5.25516E+17
2045	0.107925	5.25627E+17
2046	0.1076	5.25737E+17
2047	0.1072	5.25848E+17
2048	0.1068	5.25958E+17
2049	0.1064	5.26068E+17
2050	0.106025	5.26177E+17
2051	0.1058	5.26286E+17
2052	0.1056	5.26395E+17
2053	0.1054	5.26504E+17
2054	0.1052	5.26613E+17
2055	0.104975	5.26721E+17
2056	0.1046	5.26829E+17
2057	0.1042	5.26937E+17
2058	0.1038	5.27045E+17
2059	0.1034	5.27152E+17
2060	0.103025	5.27259E+17
2061	0.1028	5.27365E+17
2062	0.1026	5.27472E+17
2063	0.1024	5.27578E+17
2064	0.1022	5.27684E+17
2065	0.102	5.2779E+17
2066	0.1018	5.27896E+17
2067	0.1016	5.28001E+17
2068	0.1014	5.28107E+17
2069	0.1012	5.28212E+17
2070	0.101025	5.28318E+17
2071	0.101	5.28423E+17
2072	0.101	5.28528E+17
2073	0.101	5.28633E+17
2074	0.101	5.28739E+17
2075	0.1009575	5.28844E+17
2076	0.10066	5.28949E+17
2077	0.10032	5.29054E+17
2078	0.09998	5.29159E+17
2079	0.09964	5.29263E+17
2080	0.0993175	5.29367E+17
2081	0.0991	5.29471E+17
2082	0.0989	5.29574E+17
2083	0.0987	5.29678E+17
2084	0.0985	5.29781E+17
2085	0.098305	5.29884E+17
2086	0.09814	5.29987E+17
2087	0.09798	5.3009E+17
2088	0.09782	5.30193E+17
2089	0.09766	5.30295E+17
2090	0.0974825	5.30398E+17
2091	0.0972	5.305E+17
2092	0.0969	5.30602E+17
2093	0.0966	5.30704E+17
2094	0.0963	5.30805E+17
2095	0.0960425	5.30906E+17
2096	0.09604	5.31008E+17
2097	0.09608	5.31109E+17
2098	0.09612	5.3121E+17
2099	0.09616	5.31312E+17
2100	0.096185	5.31414E+17
2101	0.09612	5.31515E+17
2102	0.09604	5.31617E+17
2103	0.09596	5.31718E+17
2104	0.09588	5.3182E+17
2105	0.09578	5.31921E+17
2106	0.09556	5.32022E+17
2107	0.09532	5.32124E+17
2108	0.09508	5.32224E+17
2109	0.09484	5.32325E+17
2110	0.0946125	5.32425E+17
2111	0.09446	5.32526E+17
2112	0.09432	5.32626E+17
2113	0.09418	5.32726E+17
2114	0.09404	5.32826E+17
2115	0.0938975	5.32926E+17
2116	0.09374	5.33026E+17
2117	0.09358	5.33125E+17
2118	0.09342	5.33225E+17
2119	0.09326	5.33324E+17
2120	0.0930975	5.33424E+17
2121	0.09292	5.33523E+17
2122	0.09274	5.33622E+17
2123	0.09256	5.33721E+17
2124	0.09238	5.33819E+17
2125	0.0922275	5.33918E+17
2126	0.09224	5.34017E+17
2127	0.09228	5.34115E+17
2128	0.09232	5.34214E+17
2129	0.09236	5.34313E+17
2130	0.0923625	5.34412E+17
2131	0.09214	5.34511E+17
2132	0.09188	5.3461E+17
2133	0.09162	5.34708E+17
2134	0.09136	5.34806E+17
2135	0.0911325	5.34904E+17
2136	0.0911	5.35002E+17
2137	0.0911	5.351E+17
2138	0.0911	5.35198E+17
2139	0.0911	5.35296E+17
2140	0.09107	5.35394E+17
2141	0.09086	5.35492E+17
2142	0.09062	5.35589E+17
2143	0.09038	5.35687E+17
2144	0.09014	5.35784E+17
2145	0.089925	5.35881E+17
2146	0.08986	5.35978E+17
2147	0.08982	5.36075E+17
2148	0.08978	5.36172E+17
2149	0.08974	5.36269E+17
2150	0.089685	5.36366E+17
2151	0.08954	5.36463E+17
2152	0.08938	5.3656E+17
2153	0.08922	5.36656E+17
2154	0.08906	5.36753E+17
2155	0.088895	5.36849E+17
2156	0.0887	5.36946E+17
2157	0.0885	5.37042E+17
2158	0.0883	5.37137E+17
2159	0.0881	5.37233E+17
2160	0.0877775	5.37328E+17
2161	0.08672	5.37423E+17
2162	0.08554	5.37516E+17
2163	0.08436	5.37608E+17
2164	0.08318	5.37698E+17
2165	0.0822325	5.37788E+17
2166	0.08268	5.37878E+17
2167	0.08336	5.37969E+17
2168	0.08404	5.3806E+17
2169	0.08472	5.38153E+17
2170	0.085325	5.38246E+17
2171	0.08548	5.38339E+17
2172	0.08556	5.38433E+17
2173	0.08564	5.38526E+17
2174	0.08572	5.3862E+17
2175	0.08576	5.38714E+17
2176	0.08556	5.38808E+17
2177	0.08532	5.38901E+17
2178	0.08508	5.38994E+17
2179	0.08484	5.39087E+17
2180	0.0846325	5.3918E+17
2181	0.08462	5.39273E+17
2182	0.08464	5.39366E+17
2183	0.08466	5.39459E+17
2184	0.08468	5.39552E+17
2185	0.0846575	5.39645E+17
2186	0.08438	5.39738E+17
2187	0.08406	5.3983E+17
2188	0.08374	5.39923E+17
2189	0.08342	5.40014E+17
2190	0.08315	5.40106E+17
2191	0.08318	5.40198E+17
2192	0.08326	5.4029E+17
2193	0.08334	5.40381E+17
2194	0.08342	5.40474E+17
2195	0.0834725	5.40566E+17
2196	0.08336	5.40658E+17
2197	0.08322	5.4075E+17
2198	0.08308	5.40842E+17
2199	0.08294	5.40933E+17
2200	0.08277	5.41025E+17
2201	0.08242	5.41116E+17
2202	0.08204	5.41207E+17
2203	0.08166	5.41298E+17
2204	0.08128	5.41388E+17
2205	0.080945	5.41478E+17
2206	0.08088	5.41567E+17
2207	0.08086	5.41657E+17
2208	0.08084	5.41747E+17
2209	0.08082	5.41837E+17
2210	0.0807925	5.41927E+17
2211	0.08072	5.42016E+17
2212	0.08064	5.42106E+17
2213	0.08056	5.42196E+17
2214	0.08048	5.42286E+17
2215	0.0804	5.42375E+17
2216	0.08032	5.42465E+17
2217	0.08024	5.42554E+17
2218	0.08016	5.42644E+17
2219	0.08008	5.42733E+17
2220	0.07998	5.42822E+17
2221	0.07976	5.42911E+17
2222	0.07952	5.43E+17
2223	0.07928	5.43089E+17
2224	0.07904	5.43177E+17
2225	0.07882	5.43266E+17
2226	0.07872	5.43354E+17
2227	0.07864	5.43442E+17
2228	0.07856	5.4353E+17
2229	0.07848	5.43618E+17
2230	0.0783975	5.43706E+17
2231	0.0783	5.43794E+17
2232	0.0782	5.43882E+17
2233	0.0781	5.43969E+17
2234	0.078	5.44057E+17
2235	0.0778775	5.44145E+17
2236	0.07762	5.44232E+17
2237	0.07734	5.44319E+17
2238	0.07706	5.44406E+17
2239	0.07678	5.44492E+17
2240	0.07653	5.44579E+17
2241	0.07646	5.44665E+17
2242	0.07642	5.44751E+17
2243	0.07638	5.44837E+17
2244	0.07634	5.44923E+17
2245	0.0762825	5.45009E+17
2246	0.07612	5.45095E+17
2247	0.07594	5.45181E+17
2248	0.07576	5.45267E+17
2249	0.07558	5.45352E+17
2250	0.075395	5.45438E+17
2251	0.07518	5.45523E+17
2252	0.07496	5.45608E+17
2253	0.07474	5.45693E+17
2254	0.07452	5.45777E+17
2255	0.0743225	5.45861E+17
2256	0.07426	5.45946E+17
2257	0.07422	5.4603E+17
2258	0.07418	5.46114E+17
2259	0.07414	5.46199E+17
2260	0.074085	5.46283E+17
2261	0.07394	5.46367E+17
2262	0.07378	5.46451E+17
2263	0.07362	5.46535E+17
2264	0.07346	5.46618E+17
2265	0.073315	5.46702E+17
2266	0.07326	5.46785E+17
2267	0.07322	5.46869E+17
2268	0.07318	5.46952E+17
2269	0.07314	5.47036E+17
2270	0.0730925	5.47119E+17
2271	0.073	5.47203E+17
2272	0.0729	5.47286E+17
2273	0.0728	5.47369E+17
2274	0.0727	5.47453E+17
2275	0.0725825	5.47536E+17
2276	0.07236	5.47618E+17
2277	0.07212	5.47701E+17
2278	0.07188	5.47783E+17
2279	0.07164	5.47866E+17
2280	0.07143	5.47948E+17
2281	0.0714	5.48029E+17
2282	0.0714	5.48111E+17
2283	0.0714	5.48193E+17
2284	0.0714	5.48275E+17
2285	0.071395	5.48358E+17
2286	0.07136	5.4844E+17
2287	0.07132	5.48522E+17
2288	0.07128	5.48604E+17
2289	0.07124	5.48686E+17
2290	0.0711575	5.48768E+17
2291	0.07082	5.48849E+17
2292	0.07044	5.48931E+17
2293	0.07006	5.49011E+17
2294	0.06968	5.49092E+17
2295	0.069355	5.49172E+17
2296	0.06936	5.49252E+17
2297	0.06942	5.49332E+17
2298	0.06948	5.49413E+17
2299	0.06954	5.49493E+17
2300	0.0695875	5.49574E+17
2301	0.06956	5.49654E+17
2302	0.06952	5.49735E+17
2303	0.06948	5.49815E+17
2304	0.06944	5.49896E+17
2305	0.0693925	5.49976E+17
2306	0.0693	5.50056E+17
2307	0.0692	5.50137E+17
2308	0.0691	5.50217E+17
2309	0.069	5.50297E+17
2310	0.068895	5.50377E+17
2311	0.06876	5.50457E+17
2312	0.06862	5.50537E+17
2313	0.06848	5.50617E+17
2314	0.06834	5.50696E+17
2315	0.0682025	5.50776E+17
2316	0.06808	5.50855E+17
2317	0.06796	5.50934E+17
2318	0.06784	5.51013E+17
2319	0.06772	5.51092E+17
2320	0.067565	5.51171E+17
2321	0.0672	5.5125E+17
2322	0.0668	5.51328E+17
2323	0.0664	5.51405E+17
2324	0.066	5.51482E+17
2325	0.065665	5.51559E+17
2326	0.06572	5.51636E+17
2327	0.06584	5.51713E+17
2328	0.06596	5.51791E+17
2329	0.06608	5.51868E+17
2330	0.0661725	5.51946E+17
2331	0.0661	5.52023E+17
2332	0.066	5.521E+17
2333	0.0659	5.52178E+17
2334	0.0658	5.52255E+17
2335	0.0657	5.52332E+17
2336	0.0656	5.52409E+17
2337	0.0655	5.52486E+17
2338	0.0654	5.52563E+17
2339	0.0653	5.5264E+17
2340	0.06521	5.52717E+17
2341	0.06518	5.52794E+17
2342	0.06516	5.5287E+17
2343	0.06514	5.52947E+17
2344	0.06512	5.53024E+17
2345	0.0650825	5.53101E+17
2346	0.06494	5.53177E+17
2347	0.06478	5.53254E+17
2348	0.06462	5.5333E+17
2349	0.06446	5.53406E+17
2350	0.0642775	5.53482E+17
2351	0.06396	5.53558E+17
2352	0.06362	5.53633E+17
2353	0.06328	5.53708E+17
2354	0.06294	5.53783E+17
2355	0.062655	5.53857E+17
2356	0.0627	5.53931E+17
2357	0.0628	5.54006E+17
2358	0.0629	5.5408E+17
2359	0.063	5.54155E+17
2360	0.063085	5.5423E+17
2361	0.06308	5.54305E+17
2362	0.06306	5.5438E+17
2363	0.06304	5.54455E+17
2364	0.06302	5.5453E+17
2365	0.0629875	5.54605E+17
2366	0.06288	5.5468E+17
2367	0.06276	5.54754E+17
2368	0.06264	5.54829E+17
2369	0.06252	5.54904E+17
2370	0.06239	5.54978E+17
2371	0.0622	5.55052E+17
2372	0.062	5.55126E+17
2373	0.0618	5.552E+17
2374	0.0616	5.55274E+17
2375	0.061435	5.55347E+17
2376	0.06148	5.5542E+17
2377	0.06156	5.55494E+17
2378	0.06164	5.55568E+17
2379	0.06172	5.55642E+17
2380	0.0617225	5.55716E+17
2381	0.06126	5.55789E+17
2382	0.06072	5.55862E+17
2383	0.06018	5.55934E+17
2384	0.05964	5.56005E+17
2385	0.0592	5.56076E+17
2386	0.05936	5.56148E+17
2387	0.05962	5.56219E+17
2388	0.05988	5.56291E+17
2389	0.06014	5.56363E+17
2390	0.06036	5.56436E+17
2391	0.06034	5.56509E+17
2392	0.06028	5.56581E+17
2393	0.06022	5.56654E+17
2394	0.06016	5.56726E+17
2395	0.0600975	5.56799E+17
2396	0.06002	5.56871E+17
2397	0.05994	5.56943E+17
2398	0.05986	5.57015E+17
2399	0.05978	5.57088E+17
2400	0.0597025	5.5716E+17
2401	0.05964	5.57232E+17
2402	0.05958	5.57304E+17
2403	0.05952	5.57376E+17
2404	0.05946	5.57448E+17
2405	0.0594025	5.57519E+17
2406	0.05936	5.57591E+17
2407	0.05932	5.57663E+17
2408	0.05928	5.57735E+17
2409	0.05924	5.57807E+17
2410	0.05915	5.57878E+17
2411	0.05876	5.5795E+17
2412	0.05832	5.58021E+17
2413	0.05788	5.58091E+17
2414	0.05744	5.58161E+17
2415	0.057075	5.5823E+17
2416	0.05716	5.58299E+17
2417	0.05732	5.58369E+17
2418	0.05748	5.58439E+17
2419	0.05764	5.58509E+17
2420	0.0577675	5.58579E+17
2421	0.0577	5.5865E+17
2422	0.0576	5.5872E+17
2423	0.0575	5.5879E+17
2424	0.0574	5.5886E+17
2425	0.05731	5.5893E+17
2426	0.05728	5.59E+17
2427	0.05726	5.5907E+17
2428	0.05724	5.5914E+17
2429	0.05722	5.5921E+17
2430	0.057185	5.5928E+17
2431	0.05706	5.59349E+17
2432	0.05692	5.59419E+17
2433	0.05678	5.59488E+17
2434	0.05664	5.59558E+17
2435	0.0565125	5.59627E+17
2436	0.05646	5.59696E+17
2437	0.05642	5.59765E+17
2438	0.05638	5.59835E+17
2439	0.05634	5.59904E+17
2440	0.0562875	5.59973E+17
2441	0.05616	5.60042E+17
2442	0.05602	5.60111E+17
2443	0.05588	5.60179E+17
2444	0.05574	5.60248E+17
2445	0.0555925	5.60316E+17
2446	0.0554	5.60384E+17
2447	0.0552	5.60452E+17
2448	0.055	5.6052E+17
2449	0.0548	5.60588E+17
2450	0.054615	5.60655E+17
2451	0.05452	5.60722E+17
2452	0.05444	5.60789E+17
2453	0.05436	5.60856E+17
2454	0.05428	5.60923E+17
2455	0.0542175	5.6099E+17
2456	0.05426	5.61057E+17
2457	0.05432	5.61125E+17
2458	0.05438	5.61192E+17
2459	0.05444	5.61259E+17
2460	0.0544875	5.61327E+17
2461	0.05446	5.61394E+17
2462	0.05442	5.61461E+17
2463	0.05438	5.61529E+17
2464	0.05434	5.61596E+17
2465	0.0542825	5.61663E+17
2466	0.05412	5.61731E+17
2467	0.05394	5.61798E+17
2468	0.05376	5.61864E+17
2469	0.05358	5.61931E+17
2470	0.0534225	5.61997E+17
2471	0.0534	5.62064E+17
2472	0.0534	5.6213E+17
2473	0.0534	5.62196E+17
2474	0.0534	5.62263E+17
2475	0.0533675	5.62329E+17
2476	0.05314	5.62396E+17
2477	0.05288	5.62461E+17
2478	0.05262	5.62527E+17
2479	0.05236	5.62592E+17
2480	0.052125	5.62657E+17
2481	0.05204	5.62722E+17
2482	0.05198	5.62787E+17
2483	0.05192	5.62852E+17
2484	0.05186	5.62917E+17
2485	0.0518175	5.62982E+17
2486	0.05188	5.63047E+17
2487	0.05196	5.63112E+17
2488	0.05204	5.63177E+17
2489	0.05212	5.63242E+17
2490	0.0521075	5.63307E+17
2491	0.05154	5.63372E+17
2492	0.05088	5.63436E+17
2493	0.05022	5.63499E+17
2494	0.04956	5.63561E+17
2495	0.049045	5.63622E+17
2496	0.0494	5.63684E+17
2497	0.0499	5.63747E+17
2498	0.0504	5.63811E+17
2499	0.0509	5.63874E+17
2500	0.0513225	5.63939E+17
2501	0.05128	5.64004E+17
2502	0.05116	5.64068E+17
2503	0.05104	5.64132E+17
2504	0.05092	5.64196E+17
2505	0.050785	5.6426E+17
2506	0.05056	5.64324E+17
2507	0.05032	5.64388E+17
2508	0.05008	5.64451E+17
2509	0.04984	5.64514E+17
2510	0.04961	5.64576E+17
2511	0.04944	5.64639E+17
2512	0.04928	5.64701E+17
2513	0.04912	5.64763E+17
2514	0.04896	5.64825E+17
2515	0.0488025	5.64887E+17
2516	0.04866	5.64948E+17
2517	0.04852	5.6501E+17
2518	0.04838	5.65071E+17
2519	0.04824	5.65132E+17
2520	0.0481075	5.65193E+17
2521	0.04802	5.65254E+17
2522	0.04794	5.65315E+17
2523	0.04786	5.65376E+17
2524	0.04778	5.65436E+17
2525	0.04771	5.65497E+17
2526	0.0477	5.65558E+17
2527	0.0477	5.65618E+17
2528	0.0477	5.65679E+17
2529	0.0477	5.6574E+17
2530	0.047685	5.658E+17
2531	0.04758	5.65861E+17
2532	0.04746	5.65921E+17
2533	0.04734	5.65982E+17
2534	0.04722	5.66042E+17
2535	0.0471075	5.66102E+17
2536	0.04704	5.66162E+17
2537	0.04698	5.66222E+17
2538	0.04692	5.66282E+17
2539	0.04686	5.66342E+17
2540	0.0468025	5.66402E+17
2541	0.04676	5.66461E+17
2542	0.04672	5.66521E+17
2543	0.04668	5.66581E+17
2544	0.04664	5.66641E+17
2545	0.0465975	5.667E+17
2546	0.04654	5.6676E+17
2547	0.04648	5.66819E+17
2548	0.04642	5.66879E+17
2549	0.04636	5.66938E+17
2550	0.0462975	5.66998E+17
2551	0.04622	5.67057E+17
2552	0.04614	5.67116E+17
2553	0.04606	5.67175E+17
2554	0.04598	5.67235E+17
2555	0.0458975	5.67294E+17
2556	0.0458	5.67352E+17
2557	0.0457	5.67411E+17
2558	0.0456	5.6747E+17
2559	0.0455	5.67528E+17
2560	0.0454075	5.67587E+17
2561	0.04536	5.67645E+17
2562	0.04532	5.67704E+17
2563	0.04528	5.67762E+17
2564	0.04524	5.67821E+17
2565	0.0451975	5.67879E+17
2566	0.04514	5.67937E+17
2567	0.04508	5.67995E+17
2568	0.04502	5.68054E+17
2569	0.04496	5.68112E+17
2570	0.0448975	5.6817E+17
2571	0.04482	5.68228E+17
2572	0.04474	5.68286E+17
2573	0.04466	5.68343E+17
2574	0.04458	5.68401E+17
2575	0.0445	5.68459E+17
2576	0.04442	5.68516E+17
2577	0.04434	5.68574E+17
2578	0.04426	5.68631E+17
2579	0.04418	5.68689E+17
2580	0.04409	5.68746E+17
2581	0.04394	5.68803E+17
2582	0.04378	5.6886E+17
2583	0.04362	5.68916E+17
2584	0.04346	5.68973E+17
2585	0.0433225	5.69029E+17
2586	0.04332	5.69086E+17
2587	0.04334	5.69142E+17
2588	0.04336	5.69198E+17
2589	0.04338	5.69255E+17
2590	0.0433875	5.69311E+17
2591	0.04332	5.69368E+17
2592	0.04324	5.69424E+17
2593	0.04316	5.69481E+17
2594	0.04308	5.69537E+17
2595	0.0430075	5.69593E+17
2596	0.04298	5.69649E+17
2597	0.04296	5.69705E+17
2598	0.04294	5.69761E+17
2599	0.04292	5.69818E+17
2600	0.0429	5.69874E+17
2601	0.04288	5.6993E+17
2602	0.04286	5.69986E+17
2603	0.04284	5.70042E+17
2604	0.04282	5.70098E+17
2605	0.042795	5.70154E+17
2606	0.04274	5.7021E+17
2607	0.04268	5.70266E+17
2608	0.04262	5.70322E+17
2609	0.04256	5.70378E+17
2610	0.0425025	5.70434E+17
2611	0.04246	5.7049E+17
2612	0.04242	5.70545E+17
2613	0.04238	5.70601E+17
2614	0.04234	5.70657E+17
2615	0.042295	5.70712E+17
2616	0.04222	5.70768E+17
2617	0.04214	5.70823E+17
2618	0.04206	5.70879E+17
2619	0.04198	5.70934E+17
2620	0.0418775	5.70989E+17
2621	0.04164	5.71044E+17
2622	0.04138	5.71099E+17
2623	0.04112	5.71153E+17
2624	0.04086	5.71207E+17
2625	0.0406475	5.71261E+17
2626	0.04072	5.71314E+17
2627	0.04084	5.71368E+17
2628	0.04096	5.71423E+17
2629	0.04108	5.71477E+17
2630	0.04118	5.71531E+17
2631	0.04116	5.71586E+17
2632	0.04112	5.7164E+17
2633	0.04108	5.71695E+17
2634	0.04104	5.71749E+17
2635	0.040985	5.71803E+17
2636	0.04084	5.71858E+17
2637	0.04068	5.71912E+17
2638	0.04052	5.71965E+17
2639	0.04036	5.72019E+17
2640	0.04022	5.72072E+17
2641	0.0402	5.72126E+17
2642	0.0402	5.72179E+17
2643	0.0402	5.72233E+17
2644	0.0402	5.72286E+17
2645	0.040195	5.7234E+17
2646	0.04016	5.72393E+17
2647	0.04012	5.72447E+17
2648	0.04008	5.725E+17
2649	0.04004	5.72553E+17
2650	0.039995	5.72607E+17
2651	0.03992	5.7266E+17
2652	0.03984	5.72713E+17
2653	0.03976	5.72766E+17
2654	0.03968	5.72819E+17
2655	0.0396075	5.72872E+17
2656	0.03958	5.72925E+17
2657	0.03956	5.72978E+17
2658	0.03954	5.73031E+17
2659	0.03952	5.73083E+17
2660	0.03949	5.73136E+17
2661	0.0394	5.73189E+17
2662	0.0393	5.73242E+17
2663	0.0392	5.73294E+17
2664	0.0391	5.73347E+17
2665	0.039015	5.73399E+17
2666	0.03902	5.73451E+17
2667	0.03904	5.73504E+17
2668	0.03906	5.73556E+17
2669	0.03908	5.73609E+17
2670	0.039085	5.73661E+17
2671	0.039	5.73713E+17
2672	0.0389	5.73766E+17
2673	0.0388	5.73818E+17
2674	0.0387	5.7387E+17
2675	0.0386075	5.73922E+17
2676	0.03856	5.73974E+17
2677	0.03852	5.74026E+17
2678	0.03848	5.74078E+17
2679	0.03844	5.74129E+17
2680	0.0384	5.74181E+17
2681	0.03836	5.74233E+17
2682	0.03832	5.74285E+17
2683	0.03828	5.74336E+17
2684	0.03824	5.74388E+17
2685	0.038195	5.7444E+17
2686	0.03812	5.74491E+17
2687	0.03804	5.74542E+17
2688	0.03796	5.74594E+17
2689	0.03788	5.74645E+17
2690	0.0378025	5.74696E+17
2691	0.03774	5.74747E+17
2692	0.03768	5.74798E+17
2693	0.03762	5.74849E+17
2694	0.03756	5.749E+17
2695	0.0374975	5.74951E+17
2696	0.03742	5.75002E+17
2697	0.03734	5.75052E+17
2698	0.03726	5.75103E+17
2699	0.03718	5.75154E+17
2700	0.037105	5.75204E+17
2701	0.03706	5.75254E+17
2702	0.03702	5.75305E+17
2703	0.03698	5.75355E+17
2704	0.03694	5.75405E+17
2705	0.0369	5.75455E+17
2706	0.03686	5.75506E+17
2707	0.03682	5.75556E+17
2708	0.03678	5.75606E+17
2709	0.03674	5.75656E+17
2710	0.0367025	5.75706E+17
2711	0.03668	5.75756E+17
2712	0.03666	5.75806E+17
2713	0.03664	5.75856E+17
2714	0.03662	5.75906E+17
2715	0.0365975	5.75956E+17
2716	0.03656	5.76006E+17
2717	0.03652	5.76056E+17
2718	0.03648	5.76106E+17
2719	0.03644	5.76156E+17
2720	0.0363975	5.76205E+17
2721	0.03634	5.76255E+17
2722	0.03628	5.76305E+17
2723	0.03622	5.76354E+17
2724	0.03616	5.76404E+17
2725	0.036105	5.76453E+17
2726	0.03608	5.76503E+17
2727	0.03606	5.76552E+17
2728	0.03604	5.76602E+17
2729	0.03602	5.76651E+17
2730	0.035995	5.76701E+17
2731	0.03594	5.7675E+17
2732	0.03588	5.76799E+17
2733	0.03582	5.76849E+17
2734	0.03576	5.76898E+17
2735	0.0357025	5.76947E+17
2736	0.03566	5.76996E+17
2737	0.03562	5.77045E+17
2738	0.03558	5.77094E+17
2739	0.03554	5.77143E+17
2740	0.0355025	5.77192E+17
2741	0.03548	5.77241E+17
2742	0.03546	5.7729E+17
2743	0.03544	5.77339E+17
2744	0.03542	5.77388E+17
2745	0.0353975	5.77437E+17
2746	0.03536	5.77485E+17
2747	0.03532	5.77534E+17
2748	0.03528	5.77583E+17
2749	0.03524	5.77632E+17
2750	0.0351975	5.77681E+17
2751	0.03514	5.77729E+17
2752	0.03508	5.77778E+17
2753	0.03502	5.77826E+17
2754	0.03496	5.77875E+17
2755	0.0349	5.77923E+17
2756	0.03484	5.77971E+17
2757	0.03478	5.7802E+17
2758	0.03472	5.78068E+17
2759	0.03466	5.78116E+17
2760	0.0346025	5.78164E+17
2761	0.03456	5.78212E+17
2762	0.03452	5.7826E+17
2763	0.03448	5.78308E+17
2764	0.03444	5.78356E+17
2765	0.0344025	5.78404E+17
2766	0.03438	5.78451E+17
2767	0.03436	5.78499E+17
2768	0.03434	5.78547E+17
2769	0.03432	5.78595E+17
2770	0.0342925	5.78643E+17
2771	0.03422	5.7869E+17
2772	0.03414	5.78738E+17
2773	0.03406	5.78785E+17
2774	0.03398	5.78833E+17
2775	0.0339025	5.7888E+17
2776	0.03384	5.78928E+17
2777	0.03378	5.78975E+17
2778	0.03372	5.79022E+17
2779	0.03366	5.79069E+17
2780	0.0336025	5.79116E+17
2781	0.03356	5.79163E+17
2782	0.03352	5.7921E+17
2783	0.03348	5.79257E+17
2784	0.03344	5.79303E+17
2785	0.0334	5.7935E+17
2786	0.03336	5.79397E+17
2787	0.03332	5.79444E+17
2788	0.03328	5.7949E+17
2789	0.03324	5.79537E+17
2790	0.0331975	5.79584E+17
2791	0.03314	5.7963E+17
2792	0.03308	5.79677E+17
2793	0.03302	5.79723E+17
2794	0.03296	5.79769E+17
2795	0.032905	5.79816E+17
2796	0.03288	5.79862E+17
2797	0.03286	5.79908E+17
2798	0.03284	5.79954E+17
2799	0.03282	5.80001E+17
2800	0.032795	5.80047E+17
2801	0.03274	5.80093E+17
2802	0.03268	5.80139E+17
2803	0.03262	5.80185E+17
2804	0.03256	5.80231E+17
2805	0.032505	5.80277E+17
2806	0.03248	5.80323E+17
2807	0.03246	5.80369E+17
2808	0.03244	5.80414E+17
2809	0.03242	5.8046E+17
2810	0.0324	5.80506E+17
2811	0.03238	5.80552E+17
2812	0.03236	5.80598E+17
2813	0.03234	5.80643E+17
2814	0.03232	5.80689E+17
2815	0.0322975	5.80735E+17
2816	0.03226	5.8078E+17
2817	0.03222	5.80826E+17
2818	0.03218	5.80872E+17
2819	0.03214	5.80917E+17
2820	0.0320975	5.80963E+17
2821	0.03204	5.81008E+17
2822	0.03198	5.81054E+17
2823	0.03192	5.81099E+17
2824	0.03186	5.81144E+17
2825	0.031805	5.8119E+17
2826	0.03178	5.81235E+17
2827	0.03176	5.8128E+17
2828	0.03174	5.81325E+17
2829	0.03172	5.8137E+17
2830	0.0316975	5.81415E+17
2831	0.03166	5.8146E+17
2832	0.03162	5.81506E+17
2833	0.03158	5.81551E+17
2834	0.03154	5.81595E+17
2835	0.0314975	5.8164E+17
2836	0.03144	5.81685E+17
2837	0.03138	5.8173E+17
2838	0.03132	5.81775E+17
2839	0.03126	5.81819E+17
2840	0.0312025	5.81864E+17
2841	0.03116	5.81909E+17
2842	0.03112	5.81953E+17
2843	0.03108	5.81997E+17
2844	0.03104	5.82042E+17
2845	0.0309975	5.82086E+17
2846	0.03094	5.82131E+17
2847	0.03088	5.82175E+17
2848	0.03082	5.82219E+17
2849	0.03076	5.82263E+17
2850	0.0307	5.82307E+17
2851	0.03064	5.82351E+17
2852	0.03058	5.82395E+17
2853	0.03052	5.82439E+17
2854	0.03046	5.82482E+17
2855	0.0304025	5.82526E+17
2856	0.03036	5.8257E+17
2857	0.03032	5.82613E+17
2858	0.03028	5.82657E+17
2859	0.03024	5.827E+17
2860	0.0302	5.82744E+17
2861	0.03016	5.82787E+17
2862	0.03012	5.82831E+17
2863	0.03008	5.82874E+17
2864	0.03004	5.82917E+17
2865	0.029995	5.8296E+17
2866	0.02992	5.83004E+17
2867	0.02984	5.83047E+17
2868	0.02976	5.8309E+17
2869	0.02968	5.83132E+17
2870	0.029605	5.83175E+17
2871	0.02956	5.83218E+17
2872	0.02952	5.8326E+17
2873	0.02948	5.83303E+17
2874	0.02944	5.83346E+17
2875	0.029405	5.83388E+17
2876	0.0294	5.83431E+17
2877	0.0294	5.83473E+17
2878	0.0294	5.83516E+17
2879	0.0294	5.83558E+17
2880	0.029395	5.83601E+17
2881	0.02936	5.83644E+17
2882	0.02932	5.83686E+17
2883	0.02928	5.83729E+17
2884	0.02924	5.83771E+17
2885	0.0292025	5.83813E+17
2886	0.02918	5.83856E+17
2887	0.02916	5.83898E+17
2888	0.02914	5.8394E+17
2889	0.02912	5.83983E+17
2890	0.0291	5.84025E+17
2891	0.02908	5.84067E+17
2892	0.02906	5.8411E+17
2893	0.02904	5.84152E+17
2894	0.02902	5.84194E+17
2895	0.0289975	5.84236E+17
2896	0.02896	5.84279E+17
2897	0.02892	5.84321E+17
2898	0.02888	5.84363E+17
2899	0.02884	5.84405E+17
2900	0.0288025	5.84447E+17
2901	0.02878	5.84489E+17
2902	0.02876	5.84531E+17
2903	0.02874	5.84573E+17
2904	0.02872	5.84615E+17
2905	0.0286975	5.84657E+17
2906	0.02866	5.84699E+17
2907	0.02862	5.84741E+17
2908	0.02858	5.84782E+17
2909	0.02854	5.84824E+17
2910	0.0284975	5.84866E+17
2911	0.02844	5.84908E+17
2912	0.02838	5.84949E+17
2913	0.02832	5.84991E+17
2914	0.02826	5.85032E+17
2915	0.0282025	5.85073E+17
2916	0.02816	5.85115E+17
2917	0.02812	5.85156E+17
2918	0.02808	5.85197E+17
2919	0.02804	5.85238E+17
2920	0.028	5.8528E+17
2921	0.02796	5.85321E+17
2922	0.02792	5.85362E+17
2923	0.02788	5.85403E+17
2924	0.02784	5.85444E+17
2925	0.0278	5.85485E+17
2926	0.02776	5.85525E+17
2927	0.02772	5.85566E+17
2928	0.02768	5.85607E+17
2929	0.02764	5.85648E+17
2930	0.0275975	5.85688E+17
2931	0.02754	5.85729E+17
2932	0.02748	5.8577E+17
2933	0.02742	5.8581E+17
2934	0.02736	5.8585E+17
2935	0.0273025	5.85891E+17
2936	0.02726	5.85931E+17
2937	0.02722	5.85971E+17
2938	0.02718	5.86011E+17
2939	0.02714	5.86051E+17
2940	0.0270975	5.86092E+17
2941	0.02704	5.86132E+17
2942	0.02698	5.86172E+17
2943	0.02692	5.86211E+17
2944	0.02686	5.86251E+17
2945	0.026805	5.86291E+17
2946	0.02678	5.86331E+17
2947	0.02676	5.8637E+17
2948	0.02674	5.8641E+17
2949	0.02672	5.8645E+17
2950	0.0267	5.86489E+17
2951	0.02668	5.86529E+17
2952	0.02666	5.86568E+17
2953	0.02664	5.86608E+17
2954	0.02662	5.86648E+17
2955	0.0265975	5.86687E+17
2956	0.02656	5.86727E+17
2957	0.02652	5.86766E+17
2958	0.02648	5.86805E+17
2959	0.02644	5.86845E+17
2960	0.0264025	5.86884E+17
2961	0.02638	5.86923E+17
2962	0.02636	5.86963E+17
2963	0.02634	5.87002E+17
2964	0.02632	5.87041E+17
2965	0.0262975	5.8708E+17
2966	0.02626	5.8712E+17
2967	0.02622	5.87159E+17
2968	0.02618	5.87198E+17
2969	0.02614	5.87237E+17
2970	0.0261025	5.87276E+17
2971	0.02608	5.87315E+17
2972	0.02606	5.87354E+17
2973	0.02604	5.87393E+17
2974	0.02602	5.87432E+17
2975	0.0259975	5.87471E+17
2976	0.02596	5.87509E+17
2977	0.02592	5.87548E+17
2978	0.02588	5.87587E+17
2979	0.02584	5.87626E+17
2980	0.0258025	5.87664E+17
2981	0.02578	5.87703E+17
2982	0.02576	5.87742E+17
2983	0.02574	5.8778E+17
2984	0.02572	5.87819E+17
2985	0.0256975	5.87858E+17
2986	0.02566	5.87896E+17
2987	0.02562	5.87935E+17
2988	0.02558	5.87973E+17
2989	0.02554	5.88012E+17
2990	0.0255025	5.8805E+17
2991	0.02548	5.88088E+17
2992	0.02546	5.88127E+17
2993	0.02544	5.88165E+17
2994	0.02542	5.88203E+17
2995	0.0254	5.88241E+17
2996	0.02538	5.8828E+17
2997	0.02536	5.88318E+17
2998	0.02534	5.88356E+17
2999	0.02532	5.88394E+17
3000	0.0252975	5.88433E+17
3001	0.02526	5.88471E+17
3002	0.02522	5.88509E+17
3003	0.02518	5.88547E+17
3004	0.02514	5.88585E+17
3005	0.0251025	5.88623E+17
3006	0.02508	5.88661E+17
3007	0.02506	5.88699E+17
3008	0.02504	5.88736E+17
3009	0.02502	5.88774E+17
3010	0.025	5.88812E+17
3011	0.02498	5.8885E+17
3012	0.02496	5.88888E+17
3013	0.02494	5.88926E+17
3014	0.02492	5.88963E+17
3015	0.0248975	5.89001E+17
3016	0.02486	5.89039E+17
3017	0.02482	5.89077E+17
3018	0.02478	5.89114E+17
3019	0.02474	5.89152E+17
3020	0.0247	5.89189E+17
3021	0.02466	5.89227E+17
3022	0.02462	5.89264E+17
3023	0.02458	5.89302E+17
3024	0.02454	5.89339E+17
3025	0.0245025	5.89376E+17
3026	0.02448	5.89414E+17
3027	0.02446	5.89451E+17
3028	0.02444	5.89488E+17
3029	0.02442	5.89525E+17
3030	0.0243975	5.89562E+17
3031	0.02436	5.896E+17
3032	0.02432	5.89637E+17
3033	0.02428	5.89674E+17
3034	0.02424	5.89711E+17
3035	0.0241975	5.89748E+17
3036	0.02414	5.89785E+17
3037	0.02408	5.89821E+17
3038	0.02402	5.89858E+17
3039	0.02396	5.89895E+17
3040	0.02391	5.89931E+17
3041	0.02392	5.89968E+17
3042	0.02394	5.90004E+17
3043	0.02396	5.90041E+17
3044	0.02398	5.90078E+17
3045	0.0239975	5.90115E+17
3046	0.024	5.90151E+17
3047	0.024	5.90188E+17
3048	0.024	5.90225E+17
3049	0.024	5.90262E+17
3050	0.0239975	5.90299E+17
3051	0.02398	5.90335E+17
3052	0.02396	5.90372E+17
3053	0.02394	5.90409E+17
3054	0.02392	5.90446E+17
3055	0.0239	5.90483E+17
3056	0.02388	5.90519E+17
3057	0.02386	5.90556E+17
3058	0.02384	5.90593E+17
3059	0.02382	5.90629E+17
3060	0.023795	5.90666E+17
3061	0.02374	5.90702E+17
3062	0.02368	5.90739E+17
3063	0.02362	5.90775E+17
3064	0.02356	5.90812E+17
3065	0.023505	5.90848E+17
3066	0.02348	5.90884E+17
3067	0.02346	5.9092E+17
3068	0.02344	5.90956E+17
3069	0.02342	5.90993E+17
3070	0.0234025	5.91029E+17
3071	0.0234	5.91065E+17
3072	0.0234	5.91101E+17
3073	0.0234	5.91137E+17
3074	0.0234	5.91173E+17
3075	0.023395	5.9121E+17
3076	0.02336	5.91246E+17
3077	0.02332	5.91282E+17
3078	0.02328	5.91318E+17
3079	0.02324	5.91354E+17
3080	0.0232	5.9139E+17
3081	0.02316	5.91426E+17
3082	0.02312	5.91462E+17
3083	0.02308	5.91497E+17
3084	0.02304	5.91533E+17
3085	0.023	5.91569E+17
3086	0.02296	5.91605E+17
3087	0.02292	5.9164E+17
3088	0.02288	5.91676E+17
3089	0.02284	5.91711E+17
3090	0.0228	5.91747E+17
3091	0.02276	5.91782E+17
3092	0.02272	5.91817E+17
3093	0.02268	5.91853E+17
3094	0.02264	5.91888E+17
3095	0.0226	5.91923E+17
3096	0.02256	5.91958E+17
3097	0.02252	5.91993E+17
3098	0.02248	5.92028E+17
3099	0.02244	5.92063E+17
3100	0.0224025	5.92098E+17
3101	0.02238	5.92133E+17
3102	0.02236	5.92168E+17
3103	0.02234	5.92203E+17
3104	0.02232	5.92238E+17
3105	0.0222975	5.92273E+17
3106	0.02226	5.92307E+17
3107	0.02222	5.92342E+17
3108	0.02218	5.92377E+17
3109	0.02214	5.92411E+17
3110	0.0220975	5.92446E+17
3111	0.02204	5.92481E+17
3112	0.02198	5.92515E+17
3113	0.02192	5.92549E+17
3114	0.02186	5.92584E+17
3115	0.021805	5.92618E+17
3116	0.02178	5.92652E+17
3117	0.02176	5.92686E+17
3118	0.02174	5.9272E+17
3119	0.02172	5.92754E+17
3120	0.0217	5.92788E+17
3121	0.02168	5.92822E+17
3122	0.02166	5.92856E+17
3123	0.02164	5.9289E+17
3124	0.02162	5.92924E+17
3125	0.0216	5.92958E+17
3126	0.02158	5.92992E+17
3127	0.02156	5.93026E+17
3128	0.02154	5.9306E+17
3129	0.02152	5.93094E+17
3130	0.0215	5.93128E+17
3131	0.02148	5.93162E+17
3132	0.02146	5.93195E+17
3133	0.02144	5.93229E+17
3134	0.02142	5.93263E+17
3135	0.0213975	5.93297E+17
3136	0.02136	5.9333E+17
3137	0.02132	5.93364E+17
3138	0.02128	5.93398E+17
3139	0.02124	5.93431E+17
3140	0.0212025	5.93465E+17
3141	0.02118	5.93498E+17
3142	0.02116	5.93532E+17
3143	0.02114	5.93565E+17
3144	0.02112	5.93598E+17
3145	0.0210975	5.93632E+17
3146	0.02106	5.93665E+17
3147	0.02102	5.93698E+17
3148	0.02098	5.93732E+17
3149	0.02094	5.93765E+17
3150	0.0209025	5.93798E+17
3151	0.02088	5.93831E+17
3152	0.02086	5.93864E+17
3153	0.02084	5.93897E+17
3154	0.02082	5.9393E+17
3155	0.0208	5.93963E+17
3156	0.02078	5.93996E+17
3157	0.02076	5.94029E+17
3158	0.02074	5.94062E+17
3159	0.02072	5.94095E+17
3160	0.0207025	5.94128E+17
3161	0.0207	5.94161E+17
3162	0.0207	5.94194E+17
3163	0.0207	5.94227E+17
3164	0.0207	5.9426E+17
3165	0.020695	5.94293E+17
3166	0.02066	5.94326E+17
3167	0.02062	5.94358E+17
3168	0.02058	5.94391E+17
3169	0.02054	5.94424E+17
3170	0.020505	5.94457E+17
3171	0.0205	5.94489E+17
3172	0.0205	5.94522E+17
3173	0.0205	5.94555E+17
3174	0.0205	5.94588E+17
3175	0.020495	5.9462E+17
3176	0.02046	5.94653E+17
3177	0.02042	5.94686E+17
3178	0.02038	5.94718E+17
3179	0.02034	5.94751E+17
3180	0.0203025	5.94783E+17
3181	0.02028	5.94816E+17
3182	0.02026	5.94848E+17
3183	0.02024	5.94881E+17
3184	0.02022	5.94913E+17
3185	0.0202025	5.94945E+17
3186	0.0202	5.94978E+17
3187	0.0202	5.9501E+17
3188	0.0202	5.95042E+17
3189	0.0202	5.95075E+17
3190	0.0201975	5.95107E+17
3191	0.02018	5.9514E+17
3192	0.02016	5.95172E+17
3193	0.02014	5.95204E+17
3194	0.02012	5.95237E+17
3195	0.0200975	5.95269E+17
3196	0.02006	5.95301E+17
3197	0.02002	5.95334E+17
3198	0.01998	5.95366E+17
3199	0.01994	5.95398E+17
3200	0.019905	5.9543E+17
3201	0.0199	5.95462E+17
3202	0.0199	5.95494E+17
3203	0.0199	5.95526E+17
3204	0.0199	5.95558E+17
3205	0.0198975	5.9559E+17
3206	0.01988	5.95622E+17
3207	0.01986	5.95654E+17
3208	0.01984	5.95686E+17
3209	0.01982	5.95718E+17
3210	0.0197975	5.9575E+17
3211	0.01976	5.95782E+17
3212	0.01972	5.95814E+17
3213	0.01968	5.95846E+17
3214	0.01964	5.95878E+17
3215	0.0196025	5.95909E+17
3216	0.01958	5.95941E+17
3217	0.01956	5.95973E+17
3218	0.01954	5.96004E+17
3219	0.01952	5.96036E+17
3220	0.0195	5.96067E+17
3221	0.01948	5.96099E+17
3222	0.01946	5.96131E+17
3223	0.01944	5.96162E+17
3224	0.01942	5.96194E+17
3225	0.0194025	5.96225E+17
3226	0.0194	5.96257E+17
3227	0.0194	5.96288E+17
3228	0.0194	5.9632E+17
3229	0.0194	5.96351E+17
3230	0.0193975	5.96383E+17
3231	0.01938	5.96414E+17
3232	0.01936	5.96446E+17
3233	0.01934	5.96477E+17
3234	0.01932	5.96508E+17
3235	0.0193	5.9654E+17
3236	0.01928	5.96571E+17
3237	0.01926	5.96603E+17
3238	0.01924	5.96634E+17
3239	0.01922	5.96665E+17
3240	0.0192	5.96697E+17
3241	0.01918	5.96728E+17
3242	0.01916	5.96759E+17
3243	0.01914	5.9679E+17
3244	0.01912	5.96822E+17
3245	0.0191025	5.96853E+17
3246	0.0191	5.96884E+17
3247	0.0191	5.96915E+17
3248	0.0191	5.96946E+17
3249	0.0191	5.96978E+17
3250	0.019095	5.97009E+17
3251	0.01906	5.9704E+17
3252	0.01902	5.97071E+17
3253	0.01898	5.97102E+17
3254	0.01894	5.97133E+17
3255	0.0189025	5.97164E+17
3256	0.01888	5.97195E+17
3257	0.01886	5.97226E+17
3258	0.01884	5.97257E+17
3259	0.01882	5.97288E+17
3260	0.0188	5.97319E+17
3261	0.01878	5.97349E+17
3262	0.01876	5.9738E+17
3263	0.01874	5.97411E+17
3264	0.01872	5.97442E+17
3265	0.0187	5.97472E+17
3266	0.01868	5.97503E+17
3267	0.01866	5.97534E+17
3268	0.01864	5.97564E+17
3269	0.01862	5.97595E+17
3270	0.0186	5.97626E+17
3271	0.01858	5.97656E+17
3272	0.01856	5.97687E+17
3273	0.01854	5.97717E+17
3274	0.01852	5.97748E+17
3275	0.0185	5.97778E+17
3276	0.01848	5.97809E+17
3277	0.01846	5.97839E+17
3278	0.01844	5.9787E+17
3279	0.01842	5.979E+17
3280	0.0184	5.9793E+17
3281	0.01838	5.97961E+17
3282	0.01836	5.97991E+17
3283	0.01834	5.98021E+17
3284	0.01832	5.98051E+17
3285	0.0183025	5.98082E+17
3286	0.0183	5.98112E+17
3287	0.0183	5.98142E+17
3288	0.0183	5.98173E+17
3289	0.0183	5.98203E+17
3290	0.0182925	5.98233E+17
3291	0.01824	5.98263E+17
3292	0.01818	5.98293E+17
3293	0.01812	5.98323E+17
3294	0.01806	5.98353E+17
3295	0.018005	5.98383E+17
3296	0.01798	5.98413E+17
3297	0.01796	5.98443E+17
3298	0.01794	5.98473E+17
3299	0.01792	5.98502E+17
3300	0.0179025	5.98532E+17
3301	0.0179	5.98562E+17
3302	0.0179	5.98591E+17
3303	0.0179	5.98621E+17
3304	0.0179	5.98651E+17
3305	0.017895	5.98681E+17
3306	0.01786	5.9871E+17
3307	0.01782	5.9874E+17
3308	0.01778	5.9877E+17
3309	0.01774	5.98799E+17
3310	0.0177025	5.98829E+17
3311	0.01768	5.98858E+17
3312	0.01766	5.98888E+17
3313	0.01764	5.98917E+17
3314	0.01762	5.98946E+17
3315	0.017595	5.98976E+17
3316	0.01754	5.99005E+17
3317	0.01748	5.99034E+17
3318	0.01742	5.99063E+17
3319	0.01736	5.99092E+17
3320	0.0173075	5.99121E+17
3321	0.0173	5.9915E+17
3322	0.0173	5.99179E+17
3323	0.0173	5.99208E+17
3324	0.0173	5.99237E+17
3325	0.017295	5.99266E+17
3326	0.01726	5.99295E+17
3327	0.01722	5.99323E+17
3328	0.01718	5.99352E+17
3329	0.01714	5.99381E+17
3330	0.0171025	5.9941E+17
3331	0.01708	5.99438E+17
3332	0.01706	5.99467E+17
3333	0.01704	5.99495E+17
3334	0.01702	5.99524E+17
3335	0.017	5.99552E+17
3336	0.01698	5.99581E+17
3337	0.01696	5.99609E+17
3338	0.01694	5.99638E+17
3339	0.01692	5.99666E+17
3340	0.0169	5.99695E+17
3341	0.01688	5.99723E+17
3342	0.01686	5.99751E+17
3343	0.01684	5.9978E+17
3344	0.01682	5.99808E+17
3345	0.0167975	5.99836E+17
3346	0.01676	5.99864E+17
3347	0.01672	5.99893E+17
3348	0.01668	5.99921E+17
3349	0.01664	5.99949E+17
3350	0.0166025	5.99977E+17
3351	0.01658	6.00005E+17
3352	0.01656	6.00033E+17
3353	0.01654	6.00061E+17
3354	0.01652	6.00088E+17
3355	0.0165	6.00116E+17
3356	0.01648	6.00144E+17
3357	0.01646	6.00172E+17
3358	0.01644	6.002E+17
3359	0.01642	6.00227E+17
3360	0.0164	6.00255E+17
3361	0.01638	6.00283E+17
3362	0.01636	6.0031E+17
3363	0.01634	6.00338E+17
3364	0.01632	6.00366E+17
3365	0.0163	6.00393E+17
3366	0.01628	6.00421E+17
3367	0.01626	6.00448E+17
3368	0.01624	6.00476E+17
3369	0.01622	6.00503E+17
3370	0.0162	6.00531E+17
3371	0.01618	6.00558E+17
3372	0.01616	6.00586E+17
3373	0.01614	6.00613E+17
3374	0.01612	6.00641E+17
3375	0.0161	6.00668E+17
3376	0.01608	6.00695E+17
3377	0.01606	6.00722E+17
3378	0.01604	6.0075E+17
3379	0.01602	6.00777E+17
3380	0.0160025	6.00804E+17
3381	0.016	6.00831E+17
3382	0.016	6.00859E+17
3383	0.016	6.00886E+17
3384	0.016	6.00913E+17
3385	0.0159975	6.0094E+17
3386	0.01598	6.00968E+17
3387	0.01596	6.00995E+17
3388	0.01594	6.01022E+17
3389	0.01592	6.01049E+17
3390	0.0159	6.01076E+17
3391	0.01588	6.01103E+17
3392	0.01586	6.0113E+17
3393	0.01584	6.01157E+17
3394	0.01582	6.01184E+17
3395	0.0157975	6.01211E+17
3396	0.01576	6.01238E+17
3397	0.01572	6.01265E+17
3398	0.01568	6.01292E+17
3399	0.01564	6.01319E+17
3400	0.0156075	6.01345E+17
3401	0.01562	6.01372E+17
3402	0.01564	6.01399E+17
3403	0.01566	6.01426E+17
3404	0.01568	6.01453E+17
3405	0.0156925	6.01479E+17
3406	0.01566	6.01506E+17
3407	0.01562	6.01533E+17
3408	0.01558	6.0156E+17
3409	0.01554	6.01586E+17
3410	0.015505	6.01613E+17
3411	0.0155	6.0164E+17
3412	0.0155	6.01666E+17
3413	0.0155	6.01693E+17
3414	0.0155	6.01719E+17
3415	0.0154975	6.01746E+17
3416	0.01548	6.01773E+17
3417	0.01546	6.01799E+17
3418	0.01544	6.01826E+17
3419	0.01542	6.01852E+17
3420	0.0154	6.01879E+17
3421	0.01538	6.01905E+17
3422	0.01536	6.01932E+17
3423	0.01534	6.01958E+17
3424	0.01532	6.01985E+17
3425	0.0153	6.02011E+17
3426	0.01528	6.02037E+17
3427	0.01526	6.02064E+17
3428	0.01524	6.0209E+17
3429	0.01522	6.02116E+17
3430	0.0152025	6.02142E+17
3431	0.0152	6.02169E+17
3432	0.0152	6.02195E+17
3433	0.0152	6.02221E+17
3434	0.0152	6.02247E+17
3435	0.0151975	6.02274E+17
3436	0.01518	6.023E+17
3437	0.01516	6.02326E+17
3438	0.01514	6.02352E+17
3439	0.01512	6.02378E+17
3440	0.0151	6.02405E+17
3441	0.01508	6.02431E+17
3442	0.01506	6.02457E+17
3443	0.01504	6.02483E+17
3444	0.01502	6.02509E+17
3445	0.015	6.02535E+17
3446	0.01498	6.02561E+17
3447	0.01496	6.02587E+17
3448	0.01494	6.02613E+17
3449	0.01492	6.02639E+17
3450	0.0149025	6.02664E+17
3451	0.0149	6.0269E+17
3452	0.0149	6.02716E+17
3453	0.0149	6.02742E+17
3454	0.0149	6.02768E+17
3455	0.0148975	6.02794E+17
3456	0.01488	6.0282E+17
3457	0.01486	6.02846E+17
3458	0.01484	6.02871E+17
3459	0.01482	6.02897E+17
3460	0.0148025	6.02923E+17
3461	0.0148	6.02949E+17
3462	0.0148	6.02974E+17
3463	0.0148	6.03E+17
3464	0.0148	6.03026E+17
3465	0.0147975	6.03052E+17
3466	0.01478	6.03078E+17
3467	0.01476	6.03103E+17
3468	0.01474	6.03129E+17
3469	0.01472	6.03155E+17
3470	0.0147	6.0318E+17
3471	0.01468	6.03206E+17
3472	0.01466	6.03232E+17
3473	0.01464	6.03257E+17
3474	0.01462	6.03283E+17
3475	0.0146	6.03308E+17
3476	0.01458	6.03334E+17
3477	0.01456	6.03359E+17
3478	0.01454	6.03385E+17
3479	0.01452	6.0341E+17
3480	0.0145025	6.03436E+17
3481	0.0145	6.03461E+17
3482	0.0145	6.03486E+17
3483	0.0145	6.03512E+17
3484	0.0145	6.03537E+17
3485	0.0144975	6.03563E+17
3486	0.01448	6.03588E+17
3487	0.01446	6.03613E+17
3488	0.01444	6.03639E+17
3489	0.01442	6.03664E+17
3490	0.0144	6.03689E+17
3491	0.01438	6.03715E+17
3492	0.01436	6.0374E+17
3493	0.01434	6.03765E+17
3494	0.01432	6.0379E+17
3495	0.0143	6.03815E+17
3496	0.01428	6.0384E+17
3497	0.01426	6.03865E+17
3498	0.01424	6.03891E+17
3499	0.01422	6.03916E+17
3500	0.0142025	6.03941E+17
3501	0.0142	6.03966E+17
3502	0.0142	6.03991E+17
3503	0.0142	6.04016E+17
3504	0.0142	6.04041E+17
3505	0.0141975	6.04066E+17
3506	0.01418	6.04091E+17
3507	0.01416	6.04116E+17
3508	0.01414	6.04141E+17
3509	0.01412	6.04166E+17
3510	0.0141	6.0419E+17
3511	0.01408	6.04215E+17
3512	0.01406	6.0424E+17
3513	0.01404	6.04265E+17
3514	0.01402	6.0429E+17
3515	0.014	6.04315E+17
3516	0.01398	6.04339E+17
3517	0.01396	6.04364E+17
3518	0.01394	6.04389E+17
3519	0.01392	6.04413E+17
3520	0.0139025	6.04438E+17
3521	0.0139	6.04463E+17
3522	0.0139	6.04487E+17
3523	0.0139	6.04512E+17
3524	0.0139	6.04536E+17
3525	0.0138975	6.04561E+17
3526	0.01388	6.04586E+17
3527	0.01386	6.0461E+17
3528	0.01384	6.04635E+17
3529	0.01382	6.04659E+17
3530	0.0138025	6.04684E+17
3531	0.0138	6.04708E+17
3532	0.0138	6.04733E+17
3533	0.0138	6.04757E+17
3534	0.0138	6.04782E+17
3535	0.0137975	6.04807E+17
3536	0.01378	6.04831E+17
3537	0.01376	6.04856E+17
3538	0.01374	6.0488E+17
3539	0.01372	6.04904E+17
3540	0.0137025	6.04929E+17
3541	0.0137	6.04953E+17
3542	0.0137	6.04978E+17
3543	0.0137	6.05002E+17
3544	0.0137	6.05027E+17
3545	0.0136975	6.05051E+17
3546	0.01368	6.05075E+17
3547	0.01366	6.051E+17
3548	0.01364	6.05124E+17
3549	0.01362	6.05148E+17
3550	0.0136	6.05173E+17
3551	0.01358	6.05197E+17
3552	0.01356	6.05221E+17
3553	0.01354	6.05245E+17
3554	0.01352	6.0527E+17
3555	0.0135	6.05294E+17
3556	0.01348	6.05318E+17
3557	0.01346	6.05342E+17
3558	0.01344	6.05366E+17
3559	0.01342	6.0539E+17
3560	0.0134025	6.05414E+17
3561	0.0134	6.05438E+17
3562	0.0134	6.05462E+17
3563	0.0134	6.05486E+17
3564	0.0134	6.0551E+17
3565	0.0133975	6.05534E+17
3566	0.01338	6.05558E+17
3567	0.01336	6.05582E+17
3568	0.01334	6.05606E+17
3569	0.01332	6.0563E+17
3570	0.0133	6.05654E+17
3571	0.01328	6.05678E+17
3572	0.01326	6.05701E+17
3573	0.01324	6.05725E+17
3574	0.01322	6.05749E+17
3575	0.0132	6.05773E+17
3576	0.01318	6.05797E+17
3577	0.01316	6.0582E+17
3578	0.01314	6.05844E+17
3579	0.01312	6.05867E+17
3580	0.0131025	6.05891E+17
3581	0.0131	6.05915E+17
3582	0.0131	6.05938E+17
3583	0.0131	6.05962E+17
3584	0.0131	6.05986E+17
3585	0.0130975	6.06009E+17
3586	0.01308	6.06033E+17
3587	0.01306	6.06056E+17
3588	0.01304	6.0608E+17
3589	0.01302	6.06103E+17
3590	0.013	6.06127E+17
3591	0.01298	6.0615E+17
3592	0.01296	6.06174E+17
3593	0.01294	6.06197E+17
3594	0.01292	6.0622E+17
3595	0.0129025	6.06244E+17
3596	0.0129	6.06267E+17
3597	0.0129	6.0629E+17
3598	0.0129	6.06314E+17
3599	0.0129	6.06337E+17
3600	0.0128975	6.06361E+17
3601	0.01288	6.06384E+17
3602	0.01286	6.06407E+17
3603	0.01284	6.0643E+17
3604	0.01282	6.06454E+17
3605	0.0128	6.06477E+17
3606	0.01278	6.065E+17
3607	0.01276	6.06523E+17
3608	0.01274	6.06546E+17
3609	0.01272	6.06569E+17
3610	0.0127025	6.06593E+17
3611	0.0127	6.06616E+17
3612	0.0127	6.06639E+17
3613	0.0127	6.06662E+17
3614	0.0127	6.06685E+17
3615	0.0126975	6.06708E+17
3616	0.01268	6.06731E+17
3617	0.01266	6.06754E+17
3618	0.01264	6.06777E+17
3619	0.01262	6.068E+17
3620	0.0126025	6.06823E+17
3621	0.0126	6.06846E+17
3622	0.0126	6.06869E+17
3623	0.0126	6.06892E+17
3624	0.0126	6.06915E+17
3625	0.0125975	6.06938E+17
3626	0.01258	6.06961E+17
3627	0.01256	6.06984E+17
3628	0.01254	6.07007E+17
3629	0.01252	6.07029E+17
3630	0.0125025	6.07052E+17
3631	0.0125	6.07075E+17
3632	0.0125	6.07098E+17
3633	0.0125	6.07121E+17
3634	0.0125	6.07144E+17
3635	0.0124975	6.07167E+17
3636	0.01248	6.07189E+17
3637	0.01246	6.07212E+17
3638	0.01244	6.07235E+17
3639	0.01242	6.07258E+17
3640	0.0124025	6.0728E+17
3641	0.0124	6.07303E+17
3642	0.0124	6.07326E+17
3643	0.0124	6.07349E+17
3644	0.0124	6.07371E+17
3645	0.0123975	6.07394E+17
3646	0.01238	6.07417E+17
3647	0.01236	6.07439E+17
3648	0.01234	6.07462E+17
3649	0.01232	6.07485E+17
3650	0.0123	6.07507E+17
3651	0.01228	6.0753E+17
3652	0.01226	6.07552E+17
3653	0.01224	6.07575E+17
3654	0.01222	6.07597E+17
3655	0.0122025	6.0762E+17
3656	0.0122	6.07642E+17
3657	0.0122	6.07665E+17
3658	0.0122	6.07687E+17
3659	0.0122	6.0771E+17
3660	0.0122	6.07732E+17
3661	0.0122	6.07754E+17
3662	0.0122	6.07777E+17
3663	0.0122	6.07799E+17
3664	0.0122	6.07822E+17
3665	0.012195	6.07844E+17
3666	0.01216	6.07867E+17
3667	0.01212	6.07889E+17
3668	0.01208	6.07911E+17
3669	0.01204	6.07934E+17
3670	0.012005	6.07956E+17
3671	0.012	6.07978E+17
3672	0.012	6.08E+17
3673	0.012	6.08022E+17
3674	0.012	6.08045E+17
3675	0.0119975	6.08067E+17
3676	0.01198	6.08089E+17
3677	0.01196	6.08111E+17
3678	0.01194	6.08133E+17
3679	0.01192	6.08155E+17
3680	0.0119	6.08177E+17
3681	0.01188	6.08199E+17
3682	0.01186	6.08221E+17
3683	0.01184	6.08243E+17
3684	0.01182	6.08265E+17
3685	0.0118025	6.08287E+17
3686	0.0118	6.08309E+17
3687	0.0118	6.08331E+17
3688	0.0118	6.08353E+17
3689	0.0118	6.08374E+17
3690	0.0117975	6.08396E+17
3691	0.01178	6.08418E+17
3692	0.01176	6.0844E+17
3693	0.01174	6.08462E+17
3694	0.01172	6.08484E+17
3695	0.0117	6.08505E+17
3696	0.01168	6.08527E+17
3697	0.01166	6.08549E+17
3698	0.01164	6.0857E+17
3699	0.01162	6.08592E+17
3700	0.0116025	6.08614E+17
3701	0.0116	6.08635E+17
3702	0.0116	6.08657E+17
3703	0.0116	6.08679E+17
3704	0.0116	6.087E+17
3705	0.0115975	6.08722E+17
3706	0.01158	6.08743E+17
3707	0.01156	6.08765E+17
3708	0.01154	6.08786E+17
3709	0.01152	6.08808E+17
3710	0.0115025	6.08829E+17
3711	0.0115	6.08851E+17
3712	0.0115	6.08872E+17
3713	0.0115	6.08894E+17
3714	0.0115	6.08915E+17
3715	0.0114975	6.08937E+17
3716	0.01148	6.08958E+17
3717	0.01146	6.0898E+17
3718	0.01144	6.09001E+17
3719	0.01142	6.09022E+17
3720	0.0114025	6.09044E+17
3721	0.0114	6.09065E+17
3722	0.0114	6.09086E+17
3723	0.0114	6.09108E+17
3724	0.0114	6.09129E+17
3725	0.0113975	6.09151E+17
3726	0.01138	6.09172E+17
3727	0.01136	6.09193E+17
3728	0.01134	6.09214E+17
3729	0.01132	6.09236E+17
3730	0.0113025	6.09257E+17
3731	0.0113	6.09278E+17
3732	0.0113	6.09299E+17
3733	0.0113	6.09321E+17
3734	0.0113	6.09342E+17
3735	0.011295	6.09363E+17
3736	0.01126	6.09384E+17
3737	0.01122	6.09405E+17
3738	0.01118	6.09426E+17
3739	0.01114	6.09447E+17
3740	0.011105	6.09468E+17
3741	0.0111	6.09489E+17
3742	0.0111	6.0951E+17
3743	0.0111	6.09531E+17
3744	0.0111	6.09552E+17
3745	0.0110975	6.09573E+17
3746	0.01108	6.09594E+17
3747	0.01106	6.09614E+17
3748	0.01104	6.09635E+17
3749	0.01102	6.09656E+17
3750	0.0110025	6.09677E+17
3751	0.011	6.09697E+17
3752	0.011	6.09718E+17
3753	0.011	6.09739E+17
3754	0.011	6.0976E+17
3755	0.0109975	6.09781E+17
3756	0.01098	6.09801E+17
3757	0.01096	6.09822E+17
3758	0.01094	6.09843E+17
3759	0.01092	6.09863E+17
3760	0.0109025	6.09884E+17
3761	0.0109	6.09905E+17
3762	0.0109	6.09925E+17
3763	0.0109	6.09946E+17
3764	0.0109	6.09967E+17
3765	0.0109	6.09987E+17
3766	0.0109	6.10008E+17
3767	0.0109	6.10028E+17
3768	0.0109	6.10049E+17
3769	0.0109	6.1007E+17
3770	0.0108975	6.1009E+17
3771	0.01088	6.10111E+17
3772	0.01086	6.10132E+17
3773	0.01084	6.10152E+17
3774	0.01082	6.10173E+17
3775	0.0108	6.10193E+17
3776	0.01078	6.10214E+17
3777	0.01076	6.10234E+17
3778	0.01074	6.10255E+17
3779	0.01072	6.10275E+17
3780	0.0107025	6.10295E+17
3781	0.0107	6.10316E+17
3782	0.0107	6.10336E+17
3783	0.0107	6.10357E+17
3784	0.0107	6.10377E+17
3785	0.0106975	6.10397E+17
3786	0.01068	6.10418E+17
3787	0.01066	6.10438E+17
3788	0.01064	6.10458E+17
3789	0.01062	6.10478E+17
3790	0.0106025	6.10499E+17
3791	0.0106	6.10519E+17
3792	0.0106	6.10539E+17
3793	0.0106	6.10559E+17
3794	0.0106	6.1058E+17
3795	0.0105975	6.106E+17
3796	0.01058	6.1062E+17
3797	0.01056	6.1064E+17
3798	0.01054	6.1066E+17
3799	0.01052	6.1068E+17
3800	0.0105025	6.107E+17
3801	0.0105	6.10721E+17
3802	0.0105	6.10741E+17
3803	0.0105	6.10761E+17
3804	0.0105	6.10781E+17
3805	0.0104975	6.10801E+17
3806	0.01048	6.10821E+17
3807	0.01046	6.10841E+17
3808	0.01044	6.10861E+17
3809	0.01042	6.10881E+17
3810	0.0104025	6.10901E+17
3811	0.0104	6.10921E+17
3812	0.0104	6.10941E+17
3813	0.0104	6.10961E+17
3814	0.0104	6.10981E+17
3815	0.0103975	6.11001E+17
3816	0.01038	6.11021E+17
3817	0.01036	6.11041E+17
3818	0.01034	6.1106E+17
3819	0.01032	6.1108E+17
3820	0.0103025	6.111E+17
3821	0.0103	6.1112E+17
3822	0.0103	6.1114E+17
3823	0.0103	6.11159E+17
3824	0.0103	6.11179E+17
3825	0.0103	6.11199E+17
3826	0.0103	6.11219E+17
3827	0.0103	6.11239E+17
3828	0.0103	6.11259E+17
3829	0.0103	6.11278E+17
3830	0.0102975	6.11298E+17
3831	0.01028	6.11318E+17
3832	0.01026	6.11338E+17
3833	0.01024	6.11358E+17
3834	0.01022	6.11377E+17
3835	0.0102025	6.11397E+17
3836	0.0102	6.11417E+17
3837	0.0102	6.11436E+17
3838	0.0102	6.11456E+17
3839	0.0102	6.11476E+17
3840	0.0101975	6.11495E+17
3841	0.01018	6.11515E+17
3842	0.01016	6.11535E+17
3843	0.01014	6.11554E+17
3844	0.01012	6.11574E+17
3845	0.0101025	6.11593E+17
3846	0.0101	6.11613E+17
3847	0.0101	6.11633E+17
3848	0.0101	6.11652E+17
3849	0.0101	6.11672E+17
3850	0.0100975	6.11691E+17
3851	0.01008	6.11711E+17
3852	0.01006	6.1173E+17
3853	0.01004	6.1175E+17
3854	0.01002	6.11769E+17
3855	0.010001	6.11789E+17
3856	0.009988	6.11808E+17
3857	0.009976	6.11827E+17
3858	0.009964	6.11847E+17
3859	0.009952	6.11866E+17
3860	0.00994075	6.11885E+17
3861	0.009934	6.11905E+17
3862	0.009928	6.11924E+17
3863	0.009922	6.11943E+17
3864	0.009916	6.11962E+17
3865	0.00990875	6.11982E+17
3866	0.009894	6.12001E+17
3867	0.009878	6.1202E+17
3868	0.009862	6.12039E+17
3869	0.009846	6.12058E+17
3870	0.009832	6.12078E+17
3871	0.00983	6.12097E+17
3872	0.00983	6.12116E+17
3873	0.00983	6.12135E+17
3874	0.00983	6.12154E+17
3875	0.009828	6.12173E+17
3876	0.009814	6.12193E+17
3877	0.009798	6.12212E+17
3878	0.009782	6.12231E+17
3879	0.009766	6.1225E+17
3880	0.00975075	6.12269E+17
3881	0.00974	6.12288E+17
3882	0.00973	6.12307E+17
3883	0.00972	6.12326E+17
3884	0.00971	6.12345E+17
3885	0.0097015	6.12364E+17
3886	0.009702	6.12383E+17
3887	0.009704	6.12402E+17
3888	0.009706	6.12421E+17
3889	0.009708	6.1244E+17
3890	0.0097075	6.12459E+17
3891	0.009692	6.12478E+17
3892	0.009674	6.12497E+17
3893	0.009656	6.12515E+17
3894	0.009638	6.12534E+17
3895	0.00962175	6.12553E+17
3896	0.009616	6.12572E+17
3897	0.009612	6.12591E+17
3898	0.009608	6.1261E+17
3899	0.009604	6.12629E+17
3900	0.00960025	6.12647E+17
3901	0.009598	6.12666E+17
3902	0.009596	6.12685E+17
3903	0.009594	6.12704E+17
3904	0.009592	6.12723E+17
3905	0.0095885	6.12742E+17
3906	0.009576	6.1276E+17
3907	0.009562	6.12779E+17
3908	0.009548	6.12798E+17
3909	0.009534	6.12817E+17
3910	0.00952125	6.12836E+17
3911	0.009516	6.12854E+17
3912	0.009512	6.12873E+17
3913	0.009508	6.12892E+17
3914	0.009504	6.1291E+17
3915	0.00949825	6.12929E+17
3916	0.009482	6.12948E+17
3917	0.009464	6.12966E+17
3918	0.009446	6.12985E+17
3919	0.009428	6.13004E+17
3920	0.009412	6.13022E+17
3921	0.009408	6.13041E+17
3922	0.009406	6.13059E+17
3923	0.009404	6.13078E+17
3924	0.009402	6.13096E+17
3925	0.00939825	6.13115E+17
3926	0.009384	6.13134E+17
3927	0.009368	6.13152E+17
3928	0.009352	6.13171E+17
3929	0.009336	6.13189E+17
3930	0.0093215	6.13207E+17
3931	0.009316	6.13226E+17
3932	0.009312	6.13244E+17
3933	0.009308	6.13263E+17
3934	0.009304	6.13281E+17
3935	0.00929875	6.13299E+17
3936	0.009286	6.13318E+17
3937	0.009272	6.13336E+17
3938	0.009258	6.13355E+17
3939	0.009244	6.13373E+17
3940	0.009231	6.13391E+17
3941	0.009224	6.13409E+17
3942	0.009218	6.13428E+17
3943	0.009212	6.13446E+17
3944	0.009206	6.13464E+17
3945	0.0091985	6.13483E+17
3946	0.009182	6.13501E+17
3947	0.009164	6.13519E+17
3948	0.009146	6.13537E+17
3949	0.009128	6.13555E+17
3950	0.0091115	6.13573E+17
3951	0.009104	6.13591E+17
3952	0.009098	6.1361E+17
3953	0.009092	6.13628E+17
3954	0.009086	6.13646E+17
3955	0.00907925	6.13664E+17
3956	0.009068	6.13682E+17
3957	0.009056	6.137E+17
3958	0.009044	6.13718E+17
3959	0.009032	6.13736E+17
3960	0.00902125	6.13754E+17
3961	0.009018	6.13772E+17
3962	0.009016	6.1379E+17
3963	0.009014	6.13808E+17
3964	0.009012	6.13826E+17
3965	0.00900825	6.13844E+17
3966	0.008994	6.13862E+17
3967	0.008978	6.1388E+17
3968	0.008962	6.13897E+17
3969	0.008946	6.13915E+17
3970	0.0089315	6.13933E+17
3971	0.008926	6.13951E+17
3972	0.008922	6.13969E+17
3973	0.008918	6.13987E+17
3974	0.008914	6.14004E+17
3975	0.00890875	6.14022E+17
3976	0.008896	6.1404E+17
3977	0.008882	6.14058E+17
3978	0.008868	6.14076E+17
3979	0.008854	6.14093E+17
3980	0.00884075	6.14111E+17
3981	0.008832	6.14129E+17
3982	0.008824	6.14146E+17
3983	0.008816	6.14164E+17
3984	0.008808	6.14182E+17
3985	0.0088005	6.14199E+17
3986	0.008796	6.14217E+17
3987	0.008792	6.14235E+17
3988	0.008788	6.14252E+17
3989	0.008784	6.1427E+17
3990	0.0087785	6.14288E+17
3991	0.008764	6.14305E+17
3992	0.008748	6.14323E+17
3993	0.008732	6.1434E+17
3994	0.008716	6.14358E+17
3995	0.0087015	6.14375E+17
3996	0.008696	6.14393E+17
3997	0.008692	6.1441E+17
3998	0.008688	6.14428E+17
3999	0.008684	6.14445E+17
4000	0.00868	6.14454E+17
